Theta [deg.]  Phi   [deg.]  Abs(Grlz)[dBi   ]   Abs(Theta)[dBi   ]  Phase(Theta)[deg.]  Abs(Phi  )[dBi   ]  Phase(Phi  )[deg.]  Ax.Ratio[dB    ]    
------------------------------------------------------------------------------------------------------------------------------------------------------
  90.000           0.000           -8.679e+00          -3.823e+01             206.835          -8.684e+00             224.620           3.985e+01     
  90.000           1.000           -9.006e+00          -3.753e+01             208.214          -9.012e+00             222.139           4.000e+01     
  90.000           2.000           -9.326e+00          -3.688e+01             209.403          -9.334e+00             219.447           4.000e+01     
  90.000           3.000           -9.637e+00          -3.627e+01             210.436          -9.646e+00             216.535           4.000e+01     
  90.000           4.000           -9.933e+00          -3.570e+01             211.340          -9.944e+00             213.395           4.000e+01     
  90.000           5.000           -1.021e+01          -3.516e+01             212.139          -1.022e+01             210.026           4.000e+01     
  90.000           6.000           -1.046e+01          -3.465e+01             212.848          -1.048e+01             206.434           4.000e+01     
  90.000           7.000           -1.068e+01          -3.417e+01             213.481          -1.070e+01             202.632           3.801e+01     
  90.000           8.000           -1.086e+01          -3.371e+01             214.050          -1.088e+01             198.644           3.438e+01     
  90.000           9.000           -1.100e+01          -3.328e+01             214.563          -1.102e+01             194.502           3.159e+01     
  90.000          10.000           -1.109e+01          -3.286e+01             215.028          -1.112e+01             190.250           2.935e+01     
  90.000          11.000           -1.113e+01          -3.247e+01             215.451          -1.116e+01             185.937           2.751e+01     
  90.000          12.000           -1.112e+01          -3.209e+01             215.836          -1.115e+01             181.617           2.599e+01     
  90.000          13.000           -1.105e+01          -3.173e+01             216.189          -1.109e+01             177.346           2.473e+01     
  90.000          14.000           -1.094e+01          -3.138e+01             216.513          -1.098e+01             173.174           2.371e+01     
  90.000          15.000           -1.079e+01          -3.105e+01             216.810          -1.083e+01             169.145           2.288e+01     
  90.000          16.000           -1.060e+01          -3.073e+01             217.085          -1.064e+01             165.296           2.222e+01     
  90.000          17.000           -1.037e+01          -3.042e+01             217.338          -1.042e+01             161.651           2.169e+01     
  90.000          18.000           -1.012e+01          -3.013e+01             217.573          -1.017e+01             158.226           2.129e+01     
  90.000          19.000           -9.852e+00          -2.984e+01             217.790          -9.896e+00             155.028           2.099e+01     
  90.000          20.000           -9.566e+00          -2.957e+01             217.992          -9.609e+00             152.058           2.077e+01     
  90.000          21.000           -9.268e+00          -2.931e+01             218.180          -9.312e+00             149.309           2.061e+01     
  90.000          22.000           -8.965e+00          -2.905e+01             218.355          -9.008e+00             146.772           2.051e+01     
  90.000          23.000           -8.658e+00          -2.881e+01             218.518          -8.700e+00             144.435           2.045e+01     
  90.000          24.000           -8.351e+00          -2.857e+01             218.671          -8.393e+00             142.285           2.043e+01     
  90.000          25.000           -8.047e+00          -2.834e+01             218.813          -8.087e+00             140.308           2.043e+01     
  90.000          26.000           -7.746e+00          -2.812e+01             218.947          -7.786e+00             138.490           2.046e+01     
  90.000          27.000           -7.450e+00          -2.790e+01             219.072          -7.489e+00             136.818           2.049e+01     
  90.000          28.000           -7.160e+00          -2.769e+01             219.189          -7.199e+00             135.279           2.055e+01     
  90.000          29.000           -6.878e+00          -2.749e+01             219.300          -6.916e+00             133.862           2.061e+01     
  90.000          30.000           -6.603e+00          -2.730e+01             219.404          -6.640e+00             132.555           2.067e+01     
  90.000          31.000           -6.335e+00          -2.711e+01             219.502          -6.372e+00             131.348           2.074e+01     
  90.000          32.000           -6.076e+00          -2.693e+01             219.594          -6.112e+00             130.232           2.082e+01     
  90.000          33.000           -5.826e+00          -2.675e+01             219.682          -5.861e+00             129.199           2.089e+01     
  90.000          34.000           -5.583e+00          -2.658e+01             219.765          -5.618e+00             128.241           2.096e+01     
  90.000          35.000           -5.349e+00          -2.641e+01             219.844          -5.383e+00             127.352           2.104e+01     
  90.000          36.000           -5.123e+00          -2.625e+01             219.919          -5.156e+00             126.526           2.111e+01     
  90.000          37.000           -4.905e+00          -2.609e+01             219.990          -4.938e+00             125.756           2.118e+01     
  90.000          38.000           -4.695e+00          -2.594e+01             220.058          -4.727e+00             125.037           2.125e+01     
  90.000          39.000           -4.492e+00          -2.579e+01             220.123          -4.525e+00             124.366           2.131e+01     
  90.000          40.000           -4.298e+00          -2.565e+01             220.186          -4.330e+00             123.738           2.138e+01     
  90.000          41.000           -4.111e+00          -2.551e+01             220.247          -4.142e+00             123.149           2.144e+01     
  90.000          42.000           -3.931e+00          -2.538e+01             220.305          -3.962e+00             122.596           2.149e+01     
  90.000          43.000           -3.758e+00          -2.525e+01             220.361          -3.789e+00             122.075           2.155e+01     
  90.000          44.000           -3.592e+00          -2.512e+01             220.416          -3.622e+00             121.584           2.160e+01     
  90.000          45.000           -3.432e+00          -2.500e+01             220.470          -3.463e+00             121.121           2.165e+01     
  90.000          46.000           -3.280e+00          -2.488e+01             220.522          -3.310e+00             120.682           2.170e+01     
  90.000          47.000           -3.133e+00          -2.476e+01             220.573          -3.163e+00             120.266           2.174e+01     
  90.000          48.000           -2.993e+00          -2.465e+01             220.624          -3.023e+00             119.870           2.178e+01     
  90.000          49.000           -2.859e+00          -2.454e+01             220.674          -2.888e+00             119.493           2.182e+01     
  90.000          50.000           -2.730e+00          -2.443e+01             220.723          -2.760e+00             119.133           2.186e+01     
  90.000          51.000           -2.607e+00          -2.433e+01             220.772          -2.637e+00             118.789           2.189e+01     
  90.000          52.000           -2.490e+00          -2.423e+01             220.821          -2.519e+00             118.458           2.192e+01     
  90.000          53.000           -2.378e+00          -2.414e+01             220.871          -2.407e+00             118.140           2.195e+01     
  90.000          54.000           -2.272e+00          -2.405e+01             220.920          -2.301e+00             117.833           2.198e+01     
  90.000          55.000           -2.170e+00          -2.396e+01             220.970          -2.199e+00             117.535           2.200e+01     
  90.000          56.000           -2.074e+00          -2.387e+01             221.020          -2.103e+00             117.247           2.202e+01     
  90.000          57.000           -1.982e+00          -2.379e+01             221.071          -2.011e+00             116.966           2.204e+01     
  90.000          58.000           -1.896e+00          -2.370e+01             221.123          -1.924e+00             116.692           2.206e+01     
  90.000          59.000           -1.813e+00          -2.363e+01             221.175          -1.842e+00             116.424           2.208e+01     
  90.000          60.000           -1.736e+00          -2.355e+01             221.229          -1.765e+00             116.160           2.209e+01     
  90.000          61.000           -1.663e+00          -2.348e+01             221.284          -1.691e+00             115.901           2.211e+01     
  90.000          62.000           -1.594e+00          -2.341e+01             221.340          -1.623e+00             115.644           2.212e+01     
  90.000          63.000           -1.529e+00          -2.334e+01             221.397          -1.558e+00             115.390           2.213e+01     
  90.000          64.000           -1.469e+00          -2.327e+01             221.456          -1.497e+00             115.137           2.214e+01     
  90.000          65.000           -1.412e+00          -2.321e+01             221.516          -1.441e+00             114.885           2.214e+01     
  90.000          66.000           -1.360e+00          -2.315e+01             221.577          -1.389e+00             114.632           2.215e+01     
  90.000          67.000           -1.311e+00          -2.309e+01             221.641          -1.340e+00             114.379           2.216e+01     
  90.000          68.000           -1.267e+00          -2.304e+01             221.707          -1.296e+00             114.124           2.216e+01     
  90.000          69.000           -1.226e+00          -2.298e+01             221.774          -1.255e+00             113.868           2.216e+01     
  90.000          70.000           -1.188e+00          -2.293e+01             221.844          -1.217e+00             113.608           2.217e+01     
  90.000          71.000           -1.155e+00          -2.288e+01             221.916          -1.184e+00             113.346           2.217e+01     
  90.000          72.000           -1.124e+00          -2.283e+01             221.990          -1.154e+00             113.079           2.217e+01     
  90.000          73.000           -1.098e+00          -2.279e+01             222.066          -1.127e+00             112.807           2.217e+01     
  90.000          74.000           -1.074e+00          -2.275e+01             222.144          -1.104e+00             112.531           2.217e+01     
  90.000          75.000           -1.054e+00          -2.271e+01             222.225          -1.084e+00             112.248           2.217e+01     
  90.000          76.000           -1.037e+00          -2.267e+01             222.309          -1.067e+00             111.959           2.217e+01     
  90.000          77.000           -1.024e+00          -2.263e+01             222.395          -1.054e+00             111.663           2.217e+01     
  90.000          78.000           -1.013e+00          -2.260e+01             222.484          -1.044e+00             111.359           2.217e+01     
  90.000          79.000           -1.006e+00          -2.257e+01             222.575          -1.037e+00             111.047           2.217e+01     
  90.000          80.000           -1.002e+00          -2.254e+01             222.670          -1.032e+00             110.726           2.217e+01     
  90.000          81.000           -1.001e+00          -2.251e+01             222.767          -1.031e+00             110.396           2.216e+01     
  90.000          82.000           -1.002e+00          -2.248e+01             222.866          -1.033e+00             110.055           2.216e+01     
  90.000          83.000           -1.007e+00          -2.246e+01             222.969          -1.038e+00             109.705           2.217e+01     
  90.000          84.000           -1.014e+00          -2.243e+01             223.075          -1.045e+00             109.343           2.217e+01     
  90.000          85.000           -1.024e+00          -2.241e+01             223.184          -1.056e+00             108.970           2.217e+01     
  90.000          86.000           -1.037e+00          -2.239e+01             223.296          -1.068e+00             108.584           2.217e+01     
  90.000          87.000           -1.052e+00          -2.238e+01             223.411          -1.084e+00             108.186           2.218e+01     
  90.000          88.000           -1.070e+00          -2.236e+01             223.530          -1.102e+00             107.774           2.218e+01     
  90.000          89.000           -1.090e+00          -2.235e+01             223.651          -1.123e+00             107.348           2.219e+01     
  90.000          90.000           -1.113e+00          -2.234e+01             223.776          -1.146e+00             106.908           2.220e+01     
  90.000          91.000           -1.138e+00          -2.233e+01             223.904          -1.171e+00             106.453           2.221e+01     
  90.000          92.000           -1.166e+00          -2.232e+01             224.036          -1.199e+00             105.982           2.222e+01     
  90.000          93.000           -1.195e+00          -2.231e+01             224.171          -1.229e+00             105.495           2.223e+01     
  90.000          94.000           -1.227e+00          -2.231e+01             224.309          -1.261e+00             104.991           2.225e+01     
  90.000          95.000           -1.261e+00          -2.230e+01             224.450          -1.296e+00             104.470           2.227e+01     
  90.000          96.000           -1.297e+00          -2.230e+01             224.595          -1.332e+00             103.931           2.230e+01     
  90.000          97.000           -1.335e+00          -2.230e+01             224.744          -1.370e+00             103.374           2.232e+01     
  90.000          98.000           -1.375e+00          -2.230e+01             224.895          -1.410e+00             102.799           2.235e+01     
  90.000          99.000           -1.417e+00          -2.231e+01             225.051          -1.452e+00             102.203           2.239e+01     
  90.000         100.000           -1.460e+00          -2.231e+01             225.209          -1.496e+00             101.588           2.243e+01     
  90.000         101.000           -1.505e+00          -2.232e+01             225.372          -1.541e+00             100.953           2.247e+01     
  90.000         102.000           -1.551e+00          -2.232e+01             225.537          -1.587e+00             100.297           2.252e+01     
  90.000         103.000           -1.598e+00          -2.233e+01             225.707          -1.635e+00              99.619           2.257e+01     
  90.000         104.000           -1.647e+00          -2.234e+01             225.879          -1.684e+00              98.920           2.263e+01     
  90.000         105.000           -1.697e+00          -2.236e+01             226.055          -1.734e+00              98.199           2.270e+01     
  90.000         106.000           -1.748e+00          -2.237e+01             226.235          -1.786e+00              97.455           2.278e+01     
  90.000         107.000           -1.799e+00          -2.238e+01             226.418          -1.838e+00              96.688           2.286e+01     
  90.000         108.000           -1.852e+00          -2.240e+01             226.604          -1.890e+00              95.899           2.295e+01     
  90.000         109.000           -1.905e+00          -2.242e+01             226.794          -1.944e+00              95.086           2.305e+01     
  90.000         110.000           -1.958e+00          -2.244e+01             226.987          -1.997e+00              94.250           2.316e+01     
  90.000         111.000           -2.012e+00          -2.246e+01             227.183          -2.052e+00              93.389           2.328e+01     
  90.000         112.000           -2.066e+00          -2.248e+01             227.383          -2.106e+00              92.505           2.341e+01     
  90.000         113.000           -2.120e+00          -2.250e+01             227.586          -2.160e+00              91.598           2.355e+01     
  90.000         114.000           -2.174e+00          -2.253e+01             227.792          -2.214e+00              90.666           2.370e+01     
  90.000         115.000           -2.227e+00          -2.255e+01             228.001          -2.267e+00              89.711           2.387e+01     
  90.000         116.000           -2.280e+00          -2.258e+01             228.213          -2.320e+00              88.732           2.405e+01     
  90.000         117.000           -2.332e+00          -2.261e+01             228.429          -2.373e+00              87.730           2.425e+01     
  90.000         118.000           -2.383e+00          -2.264e+01             228.647          -2.424e+00              86.704           2.447e+01     
  90.000         119.000           -2.433e+00          -2.267e+01             228.868          -2.474e+00              85.656           2.470e+01     
  90.000         120.000           -2.482e+00          -2.270e+01             229.092          -2.523e+00              84.586           2.496e+01     
  90.000         121.000           -2.530e+00          -2.274e+01             229.318          -2.571e+00              83.494           2.523e+01     
  90.000         122.000           -2.575e+00          -2.277e+01             229.547          -2.617e+00              82.381           2.553e+01     
  90.000         123.000           -2.620e+00          -2.281e+01             229.779          -2.661e+00              81.248           2.585e+01     
  90.000         124.000           -2.662e+00          -2.285e+01             230.013          -2.704e+00              80.096           2.620e+01     
  90.000         125.000           -2.702e+00          -2.288e+01             230.250          -2.744e+00              78.926           2.658e+01     
  90.000         126.000           -2.740e+00          -2.292e+01             230.488          -2.782e+00              77.738           2.699e+01     
  90.000         127.000           -2.776e+00          -2.296e+01             230.730          -2.818e+00              76.534           2.744e+01     
  90.000         128.000           -2.809e+00          -2.301e+01             230.973          -2.851e+00              75.315           2.792e+01     
  90.000         129.000           -2.840e+00          -2.305e+01             231.218          -2.882e+00              74.082           2.845e+01     
  90.000         130.000           -2.868e+00          -2.309e+01             231.465          -2.910e+00              72.836           2.902e+01     
  90.000         131.000           -2.893e+00          -2.314e+01             231.713          -2.935e+00              71.580           2.965e+01     
  90.000         132.000           -2.916e+00          -2.319e+01             231.964          -2.957e+00              70.314           3.034e+01     
  90.000         133.000           -2.935e+00          -2.324e+01             232.216          -2.976e+00              69.041           3.110e+01     
  90.000         134.000           -2.952e+00          -2.328e+01             232.469          -2.992e+00              67.760           3.194e+01     
  90.000         135.000           -2.966e+00          -2.334e+01             232.724          -3.006e+00              66.475           3.288e+01     
  90.000         136.000           -2.976e+00          -2.339e+01             232.979          -3.016e+00              65.186           3.394e+01     
  90.000         137.000           -2.984e+00          -2.344e+01             233.236          -3.023e+00              63.895           3.515e+01     
  90.000         138.000           -2.989e+00          -2.349e+01             233.494          -3.028e+00              62.604           3.655e+01     
  90.000         139.000           -2.991e+00          -2.355e+01             233.753          -3.029e+00              61.314           3.821e+01     
  90.000         140.000           -2.990e+00          -2.361e+01             234.013          -3.028e+00              60.027           4.000e+01     
  90.000         141.000           -2.986e+00          -2.367e+01             234.273          -3.023e+00              58.744           4.000e+01     
  90.000         142.000           -2.980e+00          -2.372e+01             234.533          -3.017e+00              57.466           4.000e+01     
  90.000         143.000           -2.971e+00          -2.379e+01             234.794          -3.007e+00              56.195           4.000e+01     
  90.000         144.000           -2.960e+00          -2.385e+01             235.056          -2.996e+00              54.932           4.000e+01     
  90.000         145.000           -2.947e+00          -2.391e+01             235.318          -2.982e+00              53.677           4.000e+01     
  90.000         146.000           -2.931e+00          -2.398e+01             235.579          -2.965e+00              52.433           4.000e+01     
  90.000         147.000           -2.914e+00          -2.404e+01             235.841          -2.947e+00              51.201           4.000e+01     
  90.000         148.000           -2.894e+00          -2.411e+01             236.103          -2.927e+00              49.980           4.000e+01     
  90.000         149.000           -2.873e+00          -2.418e+01             236.365          -2.906e+00              48.771           3.892e+01     
  90.000         150.000           -2.851e+00          -2.425e+01             236.626          -2.883e+00              47.577           3.749e+01     
  90.000         151.000           -2.827e+00          -2.432e+01             236.888          -2.858e+00              46.396           3.632e+01     
  90.000         152.000           -2.803e+00          -2.440e+01             237.149          -2.833e+00              45.229           3.532e+01     
  90.000         153.000           -2.777e+00          -2.447e+01             237.409          -2.806e+00              44.078           3.446e+01     
  90.000         154.000           -2.750e+00          -2.455e+01             237.669          -2.779e+00              42.941           3.372e+01     
  90.000         155.000           -2.724e+00          -2.463e+01             237.929          -2.752e+00              41.820           3.306e+01     
  90.000         156.000           -2.696e+00          -2.471e+01             238.189          -2.724e+00              40.715           3.248e+01     
  90.000         157.000           -2.669e+00          -2.479e+01             238.447          -2.695e+00              39.624           3.197e+01     
  90.000         158.000           -2.641e+00          -2.487e+01             238.706          -2.667e+00              38.550           3.151e+01     
  90.000         159.000           -2.614e+00          -2.496e+01             238.964          -2.639e+00              37.490           3.109e+01     
  90.000         160.000           -2.586e+00          -2.505e+01             239.221          -2.611e+00              36.446           3.072e+01     
  90.000         161.000           -2.560e+00          -2.514e+01             239.478          -2.584e+00              35.416           3.039e+01     
  90.000         162.000           -2.534e+00          -2.523e+01             239.735          -2.557e+00              34.401           3.008e+01     
  90.000         163.000           -2.508e+00          -2.532e+01             239.991          -2.531e+00              33.399           2.981e+01     
  90.000         164.000           -2.484e+00          -2.542e+01             240.247          -2.506e+00              32.412           2.956e+01     
  90.000         165.000           -2.460e+00          -2.552e+01             240.503          -2.482e+00              31.437           2.934e+01     
  90.000         166.000           -2.438e+00          -2.562e+01             240.758          -2.459e+00              30.475           2.914e+01     
  90.000         167.000           -2.417e+00          -2.572e+01             241.014          -2.437e+00              29.526           2.895e+01     
  90.000         168.000           -2.397e+00          -2.583e+01             241.270          -2.417e+00              28.587           2.879e+01     
  90.000         169.000           -2.379e+00          -2.593e+01             241.526          -2.398e+00              27.660           2.864e+01     
  90.000         170.000           -2.363e+00          -2.605e+01             241.783          -2.381e+00              26.742           2.851e+01     
  90.000         171.000           -2.348e+00          -2.616e+01             242.041          -2.366e+00              25.834           2.839e+01     
  90.000         172.000           -2.335e+00          -2.627e+01             242.299          -2.352e+00              24.935           2.828e+01     
  90.000         173.000           -2.323e+00          -2.639e+01             242.558          -2.341e+00              24.043           2.819e+01     
  90.000         174.000           -2.314e+00          -2.651e+01             242.819          -2.331e+00              23.159           2.810e+01     
  90.000         175.000           -2.307e+00          -2.664e+01             243.082          -2.323e+00              22.281           2.803e+01     
  90.000         176.000           -2.301e+00          -2.677e+01             243.346          -2.317e+00              21.409           2.797e+01     
  90.000         177.000           -2.298e+00          -2.690e+01             243.613          -2.313e+00              20.542           2.791e+01     
  90.000         178.000           -2.297e+00          -2.703e+01             243.882          -2.312e+00              19.678           2.787e+01     
  90.000         179.000           -2.298e+00          -2.717e+01             244.155          -2.312e+00              18.818           2.783e+01     
  90.000         180.000           -2.301e+00          -2.731e+01             244.431          -2.315e+00              17.960           2.780e+01     
  90.000         181.000           -2.307e+00          -2.746e+01             244.711          -2.320e+00              17.103           2.778e+01     
  90.000         182.000           -2.315e+00          -2.761e+01             244.995          -2.328e+00              16.247           2.777e+01     
  90.000         183.000           -2.325e+00          -2.776e+01             245.285          -2.337e+00              15.390           2.776e+01     
  90.000         184.000           -2.337e+00          -2.791e+01             245.579          -2.349e+00              14.532           2.776e+01     
  90.000         185.000           -2.352e+00          -2.808e+01             245.880          -2.364e+00              13.672           2.777e+01     
  90.000         186.000           -2.369e+00          -2.824e+01             246.188          -2.380e+00              12.810           2.778e+01     
  90.000         187.000           -2.389e+00          -2.841e+01             246.504          -2.399e+00              11.943           2.780e+01     
  90.000         188.000           -2.410e+00          -2.859e+01             246.828          -2.421e+00              11.071           2.782e+01     
  90.000         189.000           -2.434e+00          -2.876e+01             247.161          -2.444e+00              10.194           2.786e+01     
  90.000         190.000           -2.460e+00          -2.895e+01             247.505          -2.470e+00               9.310           2.790e+01     
  90.000         191.000           -2.489e+00          -2.914e+01             247.860          -2.498e+00               8.418           2.794e+01     
  90.000         192.000           -2.519e+00          -2.933e+01             248.228          -2.528e+00               7.518           2.800e+01     
  90.000         193.000           -2.552e+00          -2.953e+01             248.610          -2.561e+00               6.608           2.806e+01     
  90.000         194.000           -2.587e+00          -2.974e+01             249.007          -2.595e+00               5.688           2.813e+01     
  90.000         195.000           -2.624e+00          -2.995e+01             249.421          -2.632e+00               4.757           2.820e+01     
  90.000         196.000           -2.662e+00          -3.017e+01             249.853          -2.670e+00               3.814           2.829e+01     
  90.000         197.000           -2.703e+00          -3.040e+01             250.306          -2.710e+00               2.858           2.838e+01     
  90.000         198.000           -2.746e+00          -3.063e+01             250.780          -2.753e+00               1.887           2.848e+01     
  90.000         199.000           -2.790e+00          -3.087e+01             251.280          -2.796e+00               0.902           2.859e+01     
  90.000         200.000           -2.835e+00          -3.111e+01             251.807          -2.842e+00             359.901           2.871e+01     
  90.000         201.000           -2.883e+00          -3.137e+01             252.363          -2.889e+00             358.884           2.885e+01     
  90.000         202.000           -2.931e+00          -3.163e+01             252.952          -2.937e+00             357.849           2.899e+01     
  90.000         203.000           -2.981e+00          -3.190e+01             253.578          -2.987e+00             356.796           2.915e+01     
  90.000         204.000           -3.032e+00          -3.218e+01             254.244          -3.037e+00             355.724           2.932e+01     
  90.000         205.000           -3.084e+00          -3.247e+01             254.955          -3.089e+00             354.633           2.950e+01     
  90.000         206.000           -3.137e+00          -3.277e+01             255.715          -3.142e+00             353.520           2.971e+01     
  90.000         207.000           -3.190e+00          -3.307e+01             256.530          -3.195e+00             352.387           2.992e+01     
  90.000         208.000           -3.244e+00          -3.339e+01             257.406          -3.248e+00             351.232           3.016e+01     
  90.000         209.000           -3.298e+00          -3.372e+01             258.350          -3.302e+00             350.054           3.042e+01     
  90.000         210.000           -3.352e+00          -3.406e+01             259.370          -3.356e+00             348.854           3.070e+01     
  90.000         211.000           -3.406e+00          -3.441e+01             260.476          -3.410e+00             347.631           3.101e+01     
  90.000         212.000           -3.460e+00          -3.477e+01             261.677          -3.463e+00             346.384           3.135e+01     
  90.000         213.000           -3.512e+00          -3.515e+01             262.985          -3.515e+00             345.113           3.171e+01     
  90.000         214.000           -3.564e+00          -3.553e+01             264.414          -3.567e+00             343.819           3.212e+01     
  90.000         215.000           -3.615e+00          -3.593e+01             265.978          -3.618e+00             342.500           3.256e+01     
  90.000         216.000           -3.665e+00          -3.634e+01             267.695          -3.667e+00             341.158           3.304e+01     
  90.000         217.000           -3.713e+00          -3.676e+01             269.585          -3.715e+00             339.791           3.357e+01     
  90.000         218.000           -3.759e+00          -3.719e+01             271.669          -3.761e+00             338.402           3.417e+01     
  90.000         219.000           -3.803e+00          -3.763e+01             273.971          -3.804e+00             336.990           3.483e+01     
  90.000         220.000           -3.844e+00          -3.807e+01             276.518          -3.845e+00             335.555           3.556e+01     
  90.000         221.000           -3.882e+00          -3.852e+01             279.339          -3.884e+00             334.099           3.640e+01     
  90.000         222.000           -3.918e+00          -3.897e+01             282.460          -3.919e+00             332.623           3.734e+01     
  90.000         223.000           -3.950e+00          -3.940e+01             285.911          -3.952e+00             331.127           3.843e+01     
  90.000         224.000           -3.979e+00          -3.983e+01             289.714          -3.980e+00             329.613           3.971e+01     
  90.000         225.000           -4.004e+00          -4.023e+01             293.884          -4.005e+00             328.082           4.000e+01     
  90.000         226.000           -4.025e+00          -4.059e+01             298.423          -4.026e+00             326.536           4.000e+01     
  90.000         227.000           -4.042e+00          -4.090e+01             303.315          -4.043e+00             324.977           4.000e+01     
  90.000         228.000           -4.055e+00          -4.116e+01             308.520          -4.056e+00             323.406           4.000e+01     
  90.000         229.000           -4.063e+00          -4.134e+01             313.971          -4.064e+00             321.825           4.000e+01     
  90.000         230.000           -4.066e+00          -4.145e+01             319.579          -4.067e+00             320.237           4.000e+01     
  90.000         231.000           -4.065e+00          -4.146e+01             325.236          -4.065e+00             318.643           4.000e+01     
  90.000         232.000           -4.058e+00          -4.140e+01             330.828          -4.059e+00             317.046           4.000e+01     
  90.000         233.000           -4.047e+00          -4.125e+01             336.251          -4.048e+00             315.448           4.000e+01     
  90.000         234.000           -4.030e+00          -4.104e+01             341.417          -4.031e+00             313.851           4.000e+01     
  90.000         235.000           -4.009e+00          -4.076e+01             346.263          -4.010e+00             312.258           4.000e+01     
  90.000         236.000           -3.982e+00          -4.044e+01             350.753          -3.983e+00             310.671           4.000e+01     
  90.000         237.000           -3.951e+00          -4.009e+01             354.871          -3.952e+00             309.093           3.903e+01     
  90.000         238.000           -3.915e+00          -3.971e+01             358.624          -3.916e+00             307.525           3.797e+01     
  90.000         239.000           -3.873e+00          -3.932e+01               2.027          -3.875e+00             305.970           3.707e+01     
  90.000         240.000           -3.828e+00          -3.892e+01               5.103          -3.829e+00             304.430           3.629e+01     
  90.000         241.000           -3.777e+00          -3.853e+01               7.882          -3.779e+00             302.907           3.560e+01     
  90.000         242.000           -3.723e+00          -3.813e+01              10.390          -3.724e+00             301.403           3.500e+01     
  90.000         243.000           -3.664e+00          -3.774e+01              12.657          -3.666e+00             299.920           3.448e+01     
  90.000         244.000           -3.602e+00          -3.736e+01              14.708          -3.603e+00             298.459           3.401e+01     
  90.000         245.000           -3.535e+00          -3.699e+01              16.567          -3.537e+00             297.022           3.360e+01     
  90.000         246.000           -3.466e+00          -3.664e+01              18.257          -3.468e+00             295.609           3.324e+01     
  90.000         247.000           -3.393e+00          -3.629e+01              19.795          -3.395e+00             294.223           3.292e+01     
  90.000         248.000           -3.317e+00          -3.596e+01              21.199          -3.319e+00             292.865           3.264e+01     
  90.000         249.000           -3.239e+00          -3.563e+01              22.483          -3.241e+00             291.535           3.239e+01     
  90.000         250.000           -3.158e+00          -3.533e+01              23.662          -3.160e+00             290.233           3.218e+01     
  90.000         251.000           -3.075e+00          -3.503e+01              24.746          -3.077e+00             288.962           3.199e+01     
  90.000         252.000           -2.990e+00          -3.474e+01              25.746          -2.993e+00             287.720           3.184e+01     
  90.000         253.000           -2.903e+00          -3.447e+01              26.670          -2.906e+00             286.510           3.170e+01     
  90.000         254.000           -2.815e+00          -3.420e+01              27.526          -2.818e+00             285.329           3.159e+01     
  90.000         255.000           -2.726e+00          -3.395e+01              28.322          -2.729e+00             284.180           3.149e+01     
  90.000         256.000           -2.636e+00          -3.371e+01              29.063          -2.639e+00             283.062           3.141e+01     
  90.000         257.000           -2.545e+00          -3.348e+01              29.754          -2.549e+00             281.974           3.135e+01     
  90.000         258.000           -2.454e+00          -3.326e+01              30.401          -2.458e+00             280.917           3.131e+01     
  90.000         259.000           -2.363e+00          -3.304e+01              31.008          -2.366e+00             279.891           3.128e+01     
  90.000         260.000           -2.271e+00          -3.284e+01              31.578          -2.275e+00             278.894           3.126e+01     
  90.000         261.000           -2.180e+00          -3.264e+01              32.115          -2.184e+00             277.928           3.126e+01     
  90.000         262.000           -2.089e+00          -3.246e+01              32.622          -2.093e+00             276.991           3.126e+01     
  90.000         263.000           -1.998e+00          -3.228e+01              33.102          -2.002e+00             276.083           3.128e+01     
  90.000         264.000           -1.908e+00          -3.211e+01              33.556          -1.912e+00             275.204           3.131e+01     
  90.000         265.000           -1.819e+00          -3.194e+01              33.988          -1.823e+00             274.352           3.134e+01     
  90.000         266.000           -1.731e+00          -3.179e+01              34.400          -1.736e+00             273.528           3.138e+01     
  90.000         267.000           -1.644e+00          -3.164e+01              34.792          -1.649e+00             272.731           3.143e+01     
  90.000         268.000           -1.559e+00          -3.150e+01              35.167          -1.563e+00             271.961           3.149e+01     
  90.000         269.000           -1.474e+00          -3.136e+01              35.527          -1.479e+00             271.216           3.155e+01     
  90.000         270.000           -1.391e+00          -3.124e+01              35.872          -1.396e+00             270.496           3.162e+01     
  90.000         271.000           -1.310e+00          -3.111e+01              36.204          -1.315e+00             269.801           3.169e+01     
  90.000         272.000           -1.231e+00          -3.100e+01              36.524          -1.235e+00             269.130           3.177e+01     
  90.000         273.000           -1.153e+00          -3.089e+01              36.833          -1.157e+00             268.482           3.185e+01     
  90.000         274.000           -1.077e+00          -3.079e+01              37.133          -1.082e+00             267.856           3.193e+01     
  90.000         275.000           -1.003e+00          -3.069e+01              37.423          -1.008e+00             267.253           3.202e+01     
  90.000         276.000           -9.313e-01          -3.060e+01              37.705          -9.359e-01             266.671           3.212e+01     
  90.000         277.000           -8.615e-01          -3.052e+01              37.979          -8.663e-01             266.110           3.222e+01     
  90.000         278.000           -7.940e-01          -3.044e+01              38.246          -7.988e-01             265.569           3.232e+01     
  90.000         279.000           -7.288e-01          -3.037e+01              38.508          -7.335e-01             265.048           3.242e+01     
  90.000         280.000           -6.659e-01          -3.030e+01              38.764          -6.707e-01             264.546           3.253e+01     
  90.000         281.000           -6.054e-01          -3.024e+01              39.015          -6.102e-01             264.062           3.263e+01     
  90.000         282.000           -5.474e-01          -3.018e+01              39.261          -5.522e-01             263.596           3.274e+01     
  90.000         283.000           -4.919e-01          -3.013e+01              39.503          -4.967e-01             263.147           3.286e+01     
  90.000         284.000           -4.390e-01          -3.008e+01              39.742          -4.437e-01             262.715           3.297e+01     
  90.000         285.000           -3.887e-01          -3.004e+01              39.978          -3.934e-01             262.299           3.309e+01     
  90.000         286.000           -3.411e-01          -3.001e+01              40.211          -3.458e-01             261.899           3.321e+01     
  90.000         287.000           -2.962e-01          -2.998e+01              40.442          -3.009e-01             261.513           3.333e+01     
  90.000         288.000           -2.541e-01          -2.996e+01              40.671          -2.588e-01             261.142           3.346e+01     
  90.000         289.000           -2.148e-01          -2.994e+01              40.898          -2.195e-01             260.785           3.358e+01     
  90.000         290.000           -1.784e-01          -2.993e+01              41.124          -1.830e-01             260.442           3.371e+01     
  90.000         291.000           -1.450e-01          -2.992e+01              41.348          -1.495e-01             260.111           3.384e+01     
  90.000         292.000           -1.144e-01          -2.992e+01              41.573          -1.190e-01             259.792           3.397e+01     
  90.000         293.000           -8.693e-02          -2.992e+01              41.796          -9.145e-02             259.486           3.411e+01     
  90.000         294.000           -6.248e-02          -2.993e+01              42.020          -6.696e-02             259.190           3.424e+01     
  90.000         295.000           -4.118e-02          -2.994e+01              42.242          -4.562e-02             258.905           3.438e+01     
  90.000         296.000           -2.297e-02          -2.996e+01              42.467          -2.738e-02             258.631           3.452e+01     
  90.000         297.000           -7.964e-03          -2.999e+01              42.691          -1.233e-02             258.367           3.467e+01     
  90.000         298.000            3.809e-03          -3.002e+01              42.917          -5.091e-04             258.111           3.481e+01     
  90.000         299.000            1.230e-02          -3.006e+01              43.144           8.028e-03             257.865           3.496e+01     
  90.000         300.000            1.746e-02          -3.010e+01              43.372           1.324e-02             257.626           3.512e+01     
  90.000         301.000            1.925e-02          -3.015e+01              43.602           1.507e-02             257.396           3.527e+01     
  90.000         302.000            1.761e-02          -3.021e+01              43.834           1.348e-02             257.172           3.543e+01     
  90.000         303.000            1.249e-02          -3.027e+01              44.068           8.424e-03             256.956           3.559e+01     
  90.000         304.000            3.854e-03          -3.034e+01              44.305          -1.590e-04             256.745           3.576e+01     
  90.000         305.000           -8.361e-03          -3.042e+01              44.545          -1.232e-02             256.540           3.593e+01     
  90.000         306.000           -2.420e-02          -3.050e+01              44.788          -2.810e-02             256.341           3.610e+01     
  90.000         307.000           -4.373e-02          -3.059e+01              45.035          -4.756e-02             256.146           3.628e+01     
  90.000         308.000           -6.700e-02          -3.068e+01              45.285          -7.077e-02             255.955           3.647e+01     
  90.000         309.000           -9.406e-02          -3.079e+01              45.540          -9.776e-02             255.768           3.666e+01     
  90.000         310.000           -1.250e-01          -3.090e+01              45.800          -1.286e-01             255.584           3.685e+01     
  90.000         311.000           -1.598e-01          -3.102e+01              46.066          -1.634e-01             255.402           3.706e+01     
  90.000         312.000           -1.986e-01          -3.114e+01              46.337          -2.021e-01             255.223           3.727e+01     
  90.000         313.000           -2.415e-01          -3.128e+01              46.615          -2.449e-01             255.044           3.749e+01     
  90.000         314.000           -2.885e-01          -3.142e+01              46.900          -2.918e-01             254.867           3.771e+01     
  90.000         315.000           -3.396e-01          -3.158e+01              47.193          -3.429e-01             254.690           3.795e+01     
  90.000         316.000           -3.951e-01          -3.174e+01              47.495          -3.983e-01             254.512           3.820e+01     
  90.000         317.000           -4.548e-01          -3.191e+01              47.806          -4.579e-01             254.333           3.846e+01     
  90.000         318.000           -5.190e-01          -3.209e+01              48.129          -5.220e-01             254.152           3.873e+01     
  90.000         319.000           -5.877e-01          -3.229e+01              48.463          -5.906e-01             253.969           3.902e+01     
  90.000         320.000           -6.609e-01          -3.249e+01              48.811          -6.638e-01             253.783           3.932e+01     
  90.000         321.000           -7.388e-01          -3.271e+01              49.173          -7.416e-01             253.593           3.964e+01     
  90.000         322.000           -8.215e-01          -3.294e+01              49.553          -8.242e-01             253.399           3.998e+01     
  90.000         323.000           -9.091e-01          -3.318e+01              49.951          -9.116e-01             253.199           4.000e+01     
  90.000         324.000           -1.002e+00          -3.344e+01              50.371          -1.004e+00             252.992           4.000e+01     
  90.000         325.000           -1.099e+00          -3.371e+01              50.814          -1.101e+00             252.779           4.000e+01     
  90.000         326.000           -1.202e+00          -3.400e+01              51.285          -1.204e+00             252.557           4.000e+01     
  90.000         327.000           -1.310e+00          -3.430e+01              51.787          -1.312e+00             252.326           4.000e+01     
  90.000         328.000           -1.423e+00          -3.463e+01              52.325          -1.425e+00             252.085           4.000e+01     
  90.000         329.000           -1.542e+00          -3.497e+01              52.904          -1.544e+00             251.833           4.000e+01     
  90.000         330.000           -1.667e+00          -3.534e+01              53.530          -1.669e+00             251.569           4.000e+01     
  90.000         331.000           -1.797e+00          -3.573e+01              54.213          -1.799e+00             251.291           4.000e+01     
  90.000         332.000           -1.934e+00          -3.615e+01              54.961          -1.935e+00             250.997           4.000e+01     
  90.000         333.000           -2.076e+00          -3.659e+01              55.786          -2.077e+00             250.687           4.000e+01     
  90.000         334.000           -2.224e+00          -3.707e+01              56.705          -2.226e+00             250.360           4.000e+01     
  90.000         335.000           -2.379e+00          -3.758e+01              57.735          -2.381e+00             250.012           4.000e+01     
  90.000         336.000           -2.541e+00          -3.814e+01              58.901          -2.542e+00             249.643           4.000e+01     
  90.000         337.000           -2.709e+00          -3.873e+01              60.236          -2.710e+00             249.250           4.000e+01     
  90.000         338.000           -2.884e+00          -3.938e+01              61.780          -2.885e+00             248.832           4.000e+01     
  90.000         339.000           -3.066e+00          -4.008e+01              63.590          -3.067e+00             248.386           4.000e+01     
  90.000         340.000           -3.256e+00          -4.085e+01              65.742          -3.256e+00             247.909           4.000e+01     
  90.000         341.000           -3.452e+00          -4.168e+01              68.344          -3.453e+00             247.398           4.000e+01     
  90.000         342.000           -3.657e+00          -4.260e+01              71.544          -3.657e+00             246.852           4.000e+01     
  90.000         343.000           -3.869e+00          -4.360e+01              75.561          -3.869e+00             246.266           4.000e+01     
  90.000         344.000           -4.088e+00          -4.468e+01              80.702          -4.089e+00             245.636           4.000e+01     
  90.000         345.000           -4.316e+00          -4.583e+01              87.407          -4.317e+00             244.959           4.000e+01     
  90.000         346.000           -4.553e+00          -4.700e+01              96.240          -4.553e+00             244.230           4.000e+01     
  90.000         347.000           -4.797e+00          -4.804e+01             107.757          -4.797e+00             243.444           4.000e+01     
  90.000         348.000           -5.050e+00          -4.876e+01             122.029          -5.050e+00             242.596           4.000e+01     
  90.000         349.000           -5.312e+00          -4.889e+01             137.934          -5.312e+00             241.679           4.000e+01     
  90.000         350.000           -5.582e+00          -4.838e+01             153.282          -5.582e+00             240.688           4.000e+01     
  90.000         351.000           -5.861e+00          -4.740e+01             166.273          -5.861e+00             239.614           4.000e+01     
  90.000         352.000           -6.148e+00          -4.620e+01             176.432          -6.148e+00             238.449           4.000e+01     
  90.000         353.000           -6.443e+00          -4.496e+01             184.148          -6.443e+00             237.186           4.000e+01     
  90.000         354.000           -6.746e+00          -4.376e+01             190.015          -6.747e+00             235.813           3.991e+01     
  90.000         355.000           -7.056e+00          -4.264e+01             194.542          -7.057e+00             234.319           3.947e+01     
  90.000         356.000           -7.373e+00          -4.161e+01             198.101          -7.374e+00             232.695           3.916e+01     
  90.000         357.000           -7.695e+00          -4.066e+01             200.954          -7.697e+00             230.926           3.899e+01     
  90.000         358.000           -8.021e+00          -3.978e+01             203.282          -8.024e+00             229.000           3.902e+01     
  90.000         359.000           -8.350e+00          -3.898e+01             205.212          -8.354e+00             226.902           3.927e+01     
