Theta [deg.]  Phi   [deg.]  Abs(Grlz)[dBi   ]   Abs(Theta)[dBi   ]  Phase(Theta)[deg.]  Abs(Phi  )[dBi   ]  Phase(Phi  )[deg.]  Ax.Ratio[dB    ]    
------------------------------------------------------------------------------------------------------------------------------------------------------
  90.000           0.000           -1.125e+00          -2.485e+01             311.489          -1.143e+00               6.450           2.546e+01     
  90.000           1.000           -1.329e+00          -2.362e+01             312.008          -1.355e+00               8.141           2.389e+01     
  90.000           2.000           -1.532e+00          -2.255e+01             312.366          -1.566e+00               9.861           2.248e+01     
  90.000           3.000           -1.732e+00          -2.162e+01             312.614          -1.776e+00              11.604           2.120e+01     
  90.000           4.000           -1.928e+00          -2.079e+01             312.784          -1.984e+00              13.369           2.004e+01     
  90.000           5.000           -2.119e+00          -2.006e+01             312.894          -2.189e+00              15.150           1.896e+01     
  90.000           6.000           -2.305e+00          -1.940e+01             312.961          -2.391e+00              16.944           1.797e+01     
  90.000           7.000           -2.485e+00          -1.881e+01             312.992          -2.588e+00              18.745           1.706e+01     
  90.000           8.000           -2.659e+00          -1.827e+01             312.996          -2.780e+00              20.550           1.621e+01     
  90.000           9.000           -2.826e+00          -1.778e+01             312.978          -2.967e+00              22.353           1.542e+01     
  90.000          10.000           -2.986e+00          -1.734e+01             312.941          -3.148e+00              24.149           1.470e+01     
  90.000          11.000           -3.138e+00          -1.693e+01             312.890          -3.323e+00              25.933           1.403e+01     
  90.000          12.000           -3.282e+00          -1.657e+01             312.826          -3.491e+00              27.699           1.341e+01     
  90.000          13.000           -3.419e+00          -1.624e+01             312.751          -3.652e+00              29.443           1.285e+01     
  90.000          14.000           -3.548e+00          -1.593e+01             312.667          -3.806e+00              31.160           1.233e+01     
  90.000          15.000           -3.669e+00          -1.566e+01             312.575          -3.953e+00              32.845           1.185e+01     
  90.000          16.000           -3.783e+00          -1.542e+01             312.476          -4.092e+00              34.494           1.142e+01     
  90.000          17.000           -3.889e+00          -1.520e+01             312.371          -4.223e+00              36.104           1.103e+01     
  90.000          18.000           -3.989e+00          -1.500e+01             312.262          -4.348e+00              37.671           1.069e+01     
  90.000          19.000           -4.082e+00          -1.483e+01             312.147          -4.464e+00              39.193           1.038e+01     
  90.000          20.000           -4.169e+00          -1.468e+01             312.028          -4.574e+00              40.669           1.011e+01     
  90.000          21.000           -4.250e+00          -1.455e+01             311.905          -4.676e+00              42.097           9.873e+00     
  90.000          22.000           -4.326e+00          -1.444e+01             311.778          -4.771e+00              43.476           9.675e+00     
  90.000          23.000           -4.396e+00          -1.435e+01             311.647          -4.859e+00              44.807           9.510e+00     
  90.000          24.000           -4.462e+00          -1.428e+01             311.512          -4.940e+00              46.091           9.378e+00     
  90.000          25.000           -4.523e+00          -1.423e+01             311.373          -5.014e+00              47.329           9.279e+00     
  90.000          26.000           -4.581e+00          -1.420e+01             311.229          -5.082e+00              48.523           9.210e+00     
  90.000          27.000           -4.634e+00          -1.419e+01             311.081          -5.144e+00              49.677           9.171e+00     
  90.000          28.000           -4.684e+00          -1.420e+01             310.927          -5.199e+00              50.792           9.162e+00     
  90.000          29.000           -4.730e+00          -1.422e+01             310.767          -5.249e+00              51.874           9.181e+00     
  90.000          30.000           -4.774e+00          -1.426e+01             310.599          -5.292e+00              52.926           9.228e+00     
  90.000          31.000           -4.814e+00          -1.432e+01             310.424          -5.330e+00              53.952           9.302e+00     
  90.000          32.000           -4.852e+00          -1.440e+01             310.238          -5.363e+00              54.958           9.404e+00     
  90.000          33.000           -4.886e+00          -1.449e+01             310.042          -5.390e+00              55.948           9.533e+00     
  90.000          34.000           -4.919e+00          -1.461e+01             309.833          -5.412e+00              56.928           9.690e+00     
  90.000          35.000           -4.949e+00          -1.474e+01             309.609          -5.430e+00              57.903           9.874e+00     
  90.000          36.000           -4.976e+00          -1.489e+01             309.366          -5.443e+00              58.879           1.009e+01     
  90.000          37.000           -5.001e+00          -1.507e+01             309.104          -5.452e+00              59.861           1.033e+01     
  90.000          38.000           -5.025e+00          -1.526e+01             308.817          -5.457e+00              60.855           1.060e+01     
  90.000          39.000           -5.046e+00          -1.547e+01             308.501          -5.458e+00              61.867           1.090e+01     
  90.000          40.000           -5.065e+00          -1.570e+01             308.153          -5.457e+00              62.901           1.124e+01     
  90.000          41.000           -5.081e+00          -1.596e+01             307.765          -5.452e+00              63.963           1.161e+01     
  90.000          42.000           -5.096e+00          -1.624e+01             307.332          -5.444e+00              65.058           1.202e+01     
  90.000          43.000           -5.110e+00          -1.654e+01             306.845          -5.434e+00              66.191           1.247e+01     
  90.000          44.000           -5.121e+00          -1.686e+01             306.295          -5.422e+00              67.368           1.296e+01     
  90.000          45.000           -5.130e+00          -1.721e+01             305.669          -5.407e+00              68.591           1.350e+01     
  90.000          46.000           -5.137e+00          -1.759e+01             304.953          -5.391e+00              69.866           1.410e+01     
  90.000          47.000           -5.142e+00          -1.800e+01             304.130          -5.373e+00              71.197           1.476e+01     
  90.000          48.000           -5.145e+00          -1.844e+01             303.180          -5.354e+00              72.589           1.550e+01     
  90.000          49.000           -5.146e+00          -1.890e+01             302.077          -5.332e+00              74.043           1.632e+01     
  90.000          50.000           -5.144e+00          -1.941e+01             300.789          -5.310e+00              75.564           1.724e+01     
  90.000          51.000           -5.139e+00          -1.994e+01             299.276          -5.285e+00              77.154           1.829e+01     
  90.000          52.000           -5.131e+00          -2.051e+01             297.491          -5.259e+00              78.817           1.950e+01     
  90.000          53.000           -5.120e+00          -2.112e+01             295.373          -5.231e+00              80.555           2.091e+01     
  90.000          54.000           -5.105e+00          -2.176e+01             292.845          -5.200e+00              82.370           2.260e+01     
  90.000          55.000           -5.085e+00          -2.243e+01             289.816          -5.166e+00              84.264           2.470e+01     
  90.000          56.000           -5.061e+00          -2.313e+01             286.176          -5.129e+00              86.237           2.746e+01     
  90.000          57.000           -5.030e+00          -2.383e+01             281.800          -5.088e+00              88.289           3.148e+01     
  90.000          58.000           -4.993e+00          -2.453e+01             276.558          -5.042e+00              90.421           3.900e+01     
  90.000          59.000           -4.949e+00          -2.517e+01             270.348          -4.990e+00              92.631           4.000e+01     
  90.000          60.000           -4.897e+00          -2.572e+01             263.137          -4.933e+00              94.916           3.466e+01     
  90.000          61.000           -4.835e+00          -2.612e+01             255.032          -4.868e+00              97.275           2.975e+01     
  90.000          62.000           -4.765e+00          -2.632e+01             246.328          -4.795e+00              99.701           2.676e+01     
  90.000          63.000           -4.683e+00          -2.628e+01             237.480          -4.713e+00             102.191           2.466e+01     
  90.000          64.000           -4.591e+00          -2.603e+01             228.993          -4.622e+00             104.737           2.308e+01     
  90.000          65.000           -4.486e+00          -2.558e+01             221.270          -4.520e+00             107.332           2.186e+01     
  90.000          66.000           -4.370e+00          -2.501e+01             214.533          -4.407e+00             109.968           2.089e+01     
  90.000          67.000           -4.240e+00          -2.436e+01             208.829          -4.283e+00             112.634           2.013e+01     
  90.000          68.000           -4.098e+00          -2.368e+01             204.092          -4.146e+00             115.320           1.954e+01     
  90.000          69.000           -3.943e+00          -2.299e+01             200.203          -3.998e+00             118.016           1.908e+01     
  90.000          70.000           -3.776e+00          -2.232e+01             197.033          -3.837e+00             120.710           1.874e+01     
  90.000          71.000           -3.596e+00          -2.167e+01             194.460          -3.664e+00             123.390           1.851e+01     
  90.000          72.000           -3.405e+00          -2.106e+01             192.382          -3.481e+00             126.047           1.836e+01     
  90.000          73.000           -3.204e+00          -2.047e+01             190.710          -3.286e+00             128.669           1.830e+01     
  90.000          74.000           -2.993e+00          -1.992e+01             189.377          -3.082e+00             131.246           1.831e+01     
  90.000          75.000           -2.773e+00          -1.941e+01             188.324          -2.868e+00             133.769           1.839e+01     
  90.000          76.000           -2.546e+00          -1.892e+01             187.505          -2.647e+00             136.231           1.851e+01     
  90.000          77.000           -2.313e+00          -1.847e+01             186.885          -2.420e+00             138.624           1.869e+01     
  90.000          78.000           -2.076e+00          -1.804e+01             186.433          -2.188e+00             140.942           1.890e+01     
  90.000          79.000           -1.836e+00          -1.764e+01             186.125          -1.951e+00             143.182           1.915e+01     
  90.000          80.000           -1.593e+00          -1.726e+01             185.940          -1.713e+00             145.339           1.942e+01     
  90.000          81.000           -1.350e+00          -1.691e+01             185.863          -1.473e+00             147.411           1.972e+01     
  90.000          82.000           -1.108e+00          -1.658e+01             185.878          -1.233e+00             149.397           2.003e+01     
  90.000          83.000           -8.679e-01          -1.628e+01             185.975          -9.948e-01             151.297           2.035e+01     
  90.000          84.000           -6.308e-01          -1.599e+01             186.144          -7.592e-01             153.110           2.068e+01     
  90.000          85.000           -3.979e-01          -1.572e+01             186.377          -5.274e-01             154.837           2.101e+01     
  90.000          86.000           -1.702e-01          -1.547e+01             186.666          -3.004e-01             156.480           2.134e+01     
  90.000          87.000            5.147e-02          -1.523e+01             187.007          -7.907e-02             158.041           2.165e+01     
  90.000          88.000            2.662e-01          -1.502e+01             187.395           1.356e-01             159.521           2.196e+01     
  90.000          89.000            4.732e-01          -1.482e+01             187.824           3.428e-01             160.924           2.226e+01     
  90.000          90.000            6.719e-01          -1.463e+01             188.293           5.419e-01             162.251           2.254e+01     
  90.000          91.000            8.615e-01          -1.446e+01             188.798           7.321e-01             163.506           2.279e+01     
  90.000          92.000            1.041e+00          -1.431e+01             189.337           9.128e-01             164.691           2.303e+01     
  90.000          93.000            1.211e+00          -1.417e+01             189.908           1.083e+00             165.810           2.325e+01     
  90.000          94.000            1.370e+00          -1.404e+01             190.509           1.244e+00             166.865           2.344e+01     
  90.000          95.000            1.518e+00          -1.393e+01             191.142           1.393e+00             167.858           2.360e+01     
  90.000          96.000            1.655e+00          -1.383e+01             191.803           1.531e+00             168.794           2.373e+01     
  90.000          97.000            1.780e+00          -1.375e+01             192.495           1.657e+00             169.674           2.384e+01     
  90.000          98.000            1.893e+00          -1.367e+01             193.216           1.770e+00             170.501           2.392e+01     
  90.000          99.000            1.993e+00          -1.362e+01             193.968           1.872e+00             171.278           2.397e+01     
  90.000         100.000            2.080e+00          -1.357e+01             194.751           1.960e+00             172.008           2.399e+01     
  90.000         101.000            2.155e+00          -1.354e+01             195.567           2.036e+00             172.692           2.398e+01     
  90.000         102.000            2.216e+00          -1.352e+01             196.418           2.098e+00             173.334           2.395e+01     
  90.000         103.000            2.263e+00          -1.351e+01             197.306           2.147e+00             173.934           2.389e+01     
  90.000         104.000            2.297e+00          -1.352e+01             198.232           2.181e+00             174.497           2.380e+01     
  90.000         105.000            2.316e+00          -1.354e+01             199.200           2.202e+00             175.023           2.369e+01     
  90.000         106.000            2.321e+00          -1.357e+01             200.213           2.208e+00             175.515           2.355e+01     
  90.000         107.000            2.312e+00          -1.361e+01             201.274           2.200e+00             175.975           2.338e+01     
  90.000         108.000            2.288e+00          -1.367e+01             202.387           2.177e+00             176.405           2.320e+01     
  90.000         109.000            2.249e+00          -1.374e+01             203.556           2.138e+00             176.806           2.299e+01     
  90.000         110.000            2.195e+00          -1.382e+01             204.786           2.085e+00             177.180           2.276e+01     
  90.000         111.000            2.125e+00          -1.391e+01             206.083           2.015e+00             177.529           2.250e+01     
  90.000         112.000            2.039e+00          -1.401e+01             207.450           1.930e+00             177.855           2.223e+01     
  90.000         113.000            1.937e+00          -1.412e+01             208.894           1.828e+00             178.159           2.194e+01     
  90.000         114.000            1.819e+00          -1.424e+01             210.420           1.710e+00             178.442           2.163e+01     
  90.000         115.000            1.685e+00          -1.437e+01             212.035           1.576e+00             178.707           2.130e+01     
  90.000         116.000            1.533e+00          -1.451e+01             213.745           1.424e+00             178.953           2.096e+01     
  90.000         117.000            1.364e+00          -1.465e+01             215.556           1.254e+00             179.184           2.059e+01     
  90.000         118.000            1.177e+00          -1.481e+01             217.474           1.066e+00             179.400           2.021e+01     
  90.000         119.000            9.724e-01          -1.496e+01             219.504           8.602e-01             179.602           1.981e+01     
  90.000         120.000            7.492e-01          -1.512e+01             221.651           6.352e-01             179.790           1.940e+01     
  90.000         121.000            5.070e-01          -1.528e+01             223.919           3.908e-01             179.967           1.896e+01     
  90.000         122.000            2.455e-01          -1.543e+01             226.311           1.264e-01             180.133           1.851e+01     
  90.000         123.000           -3.590e-02          -1.559e+01             228.826          -1.586e-01             180.289           1.804e+01     
  90.000         124.000           -3.377e-01          -1.573e+01             231.464          -4.649e-01             180.435           1.756e+01     
  90.000         125.000           -6.605e-01          -1.587e+01             234.220          -7.933e-01             180.571           1.705e+01     
  90.000         126.000           -1.005e+00          -1.600e+01             237.087          -1.145e+00             180.697           1.653e+01     
  90.000         127.000           -1.371e+00          -1.611e+01             240.055          -1.520e+00             180.813           1.599e+01     
  90.000         128.000           -1.761e+00          -1.621e+01             243.109          -1.920e+00             180.919           1.542e+01     
  90.000         129.000           -2.174e+00          -1.628e+01             246.234          -2.346e+00             181.013           1.484e+01     
  90.000         130.000           -2.612e+00          -1.634e+01             249.410          -2.800e+00             181.093           1.423e+01     
  90.000         131.000           -3.075e+00          -1.638e+01             252.615          -3.283e+00             181.157           1.361e+01     
  90.000         132.000           -3.564e+00          -1.640e+01             255.827          -3.796e+00             181.200           1.295e+01     
  90.000         133.000           -4.080e+00          -1.639e+01             259.021          -4.343e+00             181.218           1.227e+01     
  90.000         134.000           -4.624e+00          -1.636e+01             262.177          -4.925e+00             181.205           1.156e+01     
  90.000         135.000           -5.197e+00          -1.632e+01             265.272          -5.546e+00             181.150           1.083e+01     
  90.000         136.000           -5.798e+00          -1.626e+01             268.288          -6.208e+00             181.043           1.006e+01     
  90.000         137.000           -6.430e+00          -1.618e+01             271.209          -6.916e+00             180.868           9.265e+00     
  90.000         138.000           -7.091e+00          -1.609e+01             274.024          -7.675e+00             180.601           8.438e+00     
  90.000         139.000           -7.780e+00          -1.599e+01             276.723          -8.490e+00             180.211           7.583e+00     
  90.000         140.000           -8.496e+00          -1.589e+01             279.301          -9.370e+00             179.660           6.710e+00     
  90.000         141.000           -9.235e+00          -1.578e+01             281.753          -1.032e+01             178.887           5.841e+00     
  90.000         142.000           -9.990e+00          -1.567e+01             284.080          -1.136e+01             177.808           5.030e+00     
  90.000         143.000           -1.075e+01          -1.556e+01             286.283          -1.250e+01             176.301           4.396e+00     
  90.000         144.000           -1.150e+01          -1.545e+01             288.366          -1.374e+01             174.177           4.170e+00     
  90.000         145.000           -1.222e+01          -1.535e+01             290.334          -1.512e+01             171.145           4.636e+00     
  90.000         146.000           -1.288e+01          -1.525e+01             292.192          -1.665e+01             166.736           5.945e+00     
  90.000         147.000           -1.345e+01          -1.517e+01             293.946          -1.831e+01             160.200           8.169e+00     
  90.000         148.000           -1.388e+01          -1.509e+01             295.605          -2.003e+01             150.404           1.165e+01     
  90.000         149.000           -1.416e+01          -1.503e+01             297.175          -2.156e+01             136.100           1.791e+01     
  90.000         150.000           -1.425e+01          -1.498e+01             298.663          -2.239e+01             117.472           4.000e+01     
  90.000         151.000           -1.418e+01          -1.494e+01             300.077          -2.212e+01              98.128           1.708e+01     
  90.000         152.000           -1.396e+01          -1.492e+01             301.424          -2.100e+01              82.461           1.142e+01     
  90.000         153.000           -1.363e+01          -1.491e+01             302.712          -1.955e+01              71.571           8.136e+00     
  90.000         154.000           -1.321e+01          -1.492e+01             303.947          -1.810e+01              64.392           5.889e+00     
  90.000         155.000           -1.275e+01          -1.494e+01             305.137          -1.678e+01              59.688           4.281e+00     
  90.000         156.000           -1.227e+01          -1.499e+01             306.289          -1.559e+01              56.594           3.204e+00     
  90.000         157.000           -1.177e+01          -1.505e+01             307.410          -1.453e+01              54.565           2.693e+00     
  90.000         158.000           -1.127e+01          -1.513e+01             308.507          -1.358e+01              53.257           2.753e+00     
  90.000         159.000           -1.079e+01          -1.523e+01             309.588          -1.272e+01              52.450           3.208e+00     
  90.000         160.000           -1.031e+01          -1.536e+01             310.659          -1.194e+01              51.995           3.849e+00     
  90.000         161.000           -9.847e+00          -1.550e+01             311.729          -1.123e+01              51.787           4.562e+00     
  90.000         162.000           -9.397e+00          -1.567e+01             312.806          -1.057e+01              51.758           5.300e+00     
  90.000         163.000           -8.962e+00          -1.586e+01             313.898          -9.954e+00              51.852           6.045e+00     
  90.000         164.000           -8.540e+00          -1.607e+01             315.015          -9.383e+00              52.026           6.792e+00     
  90.000         165.000           -8.132e+00          -1.632e+01             316.169          -8.848e+00              52.251           7.539e+00     
  90.000         166.000           -7.738e+00          -1.659e+01             317.370          -8.344e+00              52.500           8.289e+00     
  90.000         167.000           -7.356e+00          -1.688e+01             318.634          -7.869e+00              52.754           9.044e+00     
  90.000         168.000           -6.986e+00          -1.721e+01             319.976          -7.419e+00              52.998           9.809e+00     
  90.000         169.000           -6.629e+00          -1.757e+01             321.416          -6.993e+00              53.218           1.059e+01     
  90.000         170.000           -6.284e+00          -1.797e+01             322.977          -6.589e+00              53.405           1.138e+01     
  90.000         171.000           -5.950e+00          -1.840e+01             324.686          -6.205e+00              53.550           1.220e+01     
  90.000         172.000           -5.628e+00          -1.887e+01             326.579          -5.839e+00              53.647           1.305e+01     
  90.000         173.000           -5.318e+00          -1.938e+01             328.697          -5.492e+00              53.691           1.393e+01     
  90.000         174.000           -5.019e+00          -1.994e+01             331.095          -5.161e+00              53.678           1.485e+01     
  90.000         175.000           -4.732e+00          -2.054e+01             333.841          -4.847e+00              53.605           1.584e+01     
  90.000         176.000           -4.456e+00          -2.118e+01             337.020          -4.549e+00              53.470           1.689e+01     
  90.000         177.000           -4.191e+00          -2.187e+01             340.739          -4.265e+00              53.271           1.802e+01     
  90.000         178.000           -3.937e+00          -2.259e+01             345.135          -3.996e+00              53.009           1.927e+01     
  90.000         179.000           -3.694e+00          -2.333e+01             350.365          -3.741e+00              52.682           2.067e+01     
  90.000         180.000           -3.461e+00          -2.407e+01             356.608          -3.499e+00              52.291           2.226e+01     
  90.000         181.000           -3.240e+00          -2.477e+01               4.014          -3.270e+00              51.837           2.413e+01     
  90.000         182.000           -3.028e+00          -2.537e+01              12.656          -3.054e+00              51.320           2.643e+01     
  90.000         183.000           -2.827e+00          -2.579e+01              22.415          -2.849e+00              50.741           2.945e+01     
  90.000         184.000           -2.635e+00          -2.597e+01              32.900          -2.656e+00              50.104           3.393e+01     
  90.000         185.000           -2.453e+00          -2.586e+01              43.486          -2.473e+00              49.408           4.000e+01     
  90.000         186.000           -2.280e+00          -2.549e+01              53.509          -2.301e+00              48.656           4.000e+01     
  90.000         187.000           -2.116e+00          -2.492e+01              62.493          -2.139e+00              47.852           3.477e+01     
  90.000         188.000           -1.961e+00          -2.423e+01              70.241          -1.987e+00              46.996           3.036e+01     
  90.000         189.000           -1.814e+00          -2.347e+01              76.774          -1.843e+00              46.092           2.752e+01     
  90.000         190.000           -1.674e+00          -2.271e+01              82.232          -1.709e+00              45.144           2.544e+01     
  90.000         191.000           -1.543e+00          -2.196e+01              86.788          -1.582e+00              44.154           2.380e+01     
  90.000         192.000           -1.418e+00          -2.124e+01              90.607          -1.464e+00              43.126           2.247e+01     
  90.000         193.000           -1.301e+00          -2.056e+01              93.832          -1.353e+00              42.064           2.135e+01     
  90.000         194.000           -1.190e+00          -1.993e+01              96.577          -1.249e+00              40.972           2.039e+01     
  90.000         195.000           -1.086e+00          -1.935e+01              98.934          -1.151e+00              39.854           1.956e+01     
  90.000         196.000           -9.883e-01          -1.880e+01             100.974          -1.061e+00              38.714           1.883e+01     
  90.000         197.000           -8.966e-01          -1.830e+01             102.755          -9.764e-01              37.557           1.819e+01     
  90.000         198.000           -8.110e-01          -1.783e+01             104.321          -8.981e-01              36.389           1.762e+01     
  90.000         199.000           -7.314e-01          -1.741e+01             105.707          -8.258e-01              35.212           1.712e+01     
  90.000         200.000           -6.579e-01          -1.702e+01             106.942          -7.595e-01              34.034           1.667e+01     
  90.000         201.000           -5.902e-01          -1.666e+01             108.048          -6.990e-01              32.858           1.627e+01     
  90.000         202.000           -5.286e-01          -1.633e+01             109.045          -6.443e-01              31.690           1.591e+01     
  90.000         203.000           -4.731e-01          -1.603e+01             109.947          -5.956e-01              30.535           1.559e+01     
  90.000         204.000           -4.240e-01          -1.576e+01             110.767          -5.530e-01              29.399           1.531e+01     
  90.000         205.000           -3.814e-01          -1.552e+01             111.515          -5.166e-01              28.286           1.506e+01     
  90.000         206.000           -3.456e-01          -1.530e+01             112.200          -4.868e-01              27.201           1.485e+01     
  90.000         207.000           -3.170e-01          -1.510e+01             112.829          -4.636e-01              26.151           1.466e+01     
  90.000         208.000           -2.957e-01          -1.494e+01             113.409          -4.476e-01              25.139           1.449e+01     
  90.000         209.000           -2.823e-01          -1.479e+01             113.944          -4.390e-01              24.172           1.435e+01     
  90.000         210.000           -2.770e-01          -1.466e+01             114.439          -4.381e-01              23.254           1.423e+01     
  90.000         211.000           -2.804e-01          -1.456e+01             114.898          -4.455e-01              22.390           1.412e+01     
  90.000         212.000           -2.927e-01          -1.448e+01             115.323          -4.615e-01              21.585           1.404e+01     
  90.000         213.000           -3.145e-01          -1.442e+01             115.718          -4.866e-01              20.845           1.397e+01     
  90.000         214.000           -3.463e-01          -1.438e+01             116.086          -5.213e-01              20.175           1.391e+01     
  90.000         215.000           -3.884e-01          -1.436e+01             116.427          -5.659e-01              19.580           1.386e+01     
  90.000         216.000           -4.413e-01          -1.436e+01             116.744          -6.209e-01              19.065           1.383e+01     
  90.000         217.000           -5.054e-01          -1.439e+01             117.038          -6.868e-01              18.637           1.380e+01     
  90.000         218.000           -5.812e-01          -1.443e+01             117.311          -7.640e-01              18.302           1.378e+01     
  90.000         219.000           -6.689e-01          -1.449e+01             117.563          -8.527e-01              18.066           1.377e+01     
  90.000         220.000           -7.689e-01          -1.458e+01             117.795          -9.534e-01              17.935           1.377e+01     
  90.000         221.000           -8.815e-01          -1.468e+01             118.007          -1.066e+00              17.919           1.377e+01     
  90.000         222.000           -1.007e+00          -1.481e+01             118.201          -1.191e+00              18.024           1.377e+01     
  90.000         223.000           -1.145e+00          -1.496e+01             118.376          -1.329e+00              18.261           1.378e+01     
  90.000         224.000           -1.296e+00          -1.514e+01             118.531          -1.479e+00              18.638           1.380e+01     
  90.000         225.000           -1.459e+00          -1.533e+01             118.668          -1.641e+00              19.166           1.382e+01     
  90.000         226.000           -1.634e+00          -1.555e+01             118.785          -1.814e+00              19.856           1.385e+01     
  90.000         227.000           -1.820e+00          -1.580e+01             118.881          -1.998e+00              20.720           1.390e+01     
  90.000         228.000           -2.017e+00          -1.607e+01             118.955          -2.191e+00              21.773           1.395e+01     
  90.000         229.000           -2.222e+00          -1.637e+01             119.008          -2.393e+00              23.026           1.403e+01     
  90.000         230.000           -2.434e+00          -1.670e+01             119.035          -2.600e+00              24.494           1.413e+01     
  90.000         231.000           -2.651e+00          -1.706e+01             119.035          -2.811e+00              26.190           1.426e+01     
  90.000         232.000           -2.868e+00          -1.745e+01             119.006          -3.022e+00              28.125           1.443e+01     
  90.000         233.000           -3.083e+00          -1.788e+01             118.943          -3.229e+00              30.311           1.465e+01     
  90.000         234.000           -3.290e+00          -1.835e+01             118.841          -3.428e+00              32.752           1.494e+01     
  90.000         235.000           -3.484e+00          -1.886e+01             118.694          -3.612e+00              35.450           1.531e+01     
  90.000         236.000           -3.661e+00          -1.941e+01             118.495          -3.778e+00              38.399           1.577e+01     
  90.000         237.000           -3.812e+00          -2.002e+01             118.233          -3.917e+00              41.585           1.636e+01     
  90.000         238.000           -3.932e+00          -2.069e+01             117.894          -4.024e+00              44.982           1.707e+01     
  90.000         239.000           -4.015e+00          -2.142e+01             117.459          -4.094e+00              48.556           1.795e+01     
  90.000         240.000           -4.056e+00          -2.222e+01             116.904          -4.122e+00              52.263           1.901e+01     
  90.000         241.000           -4.051e+00          -2.312e+01             116.190          -4.106e+00              56.048           2.028e+01     
  90.000         242.000           -4.000e+00          -2.412e+01             115.264          -4.042e+00              59.857           2.179e+01     
  90.000         243.000           -3.902e+00          -2.524e+01             114.046          -3.934e+00              63.631           2.359e+01     
  90.000         244.000           -3.761e+00          -2.652e+01             112.405          -3.784e+00              67.317           2.575e+01     
  90.000         245.000           -3.579e+00          -2.799e+01             110.123          -3.595e+00              70.869           2.839e+01     
  90.000         246.000           -3.364e+00          -2.972e+01             106.807          -3.374e+00              74.250           3.175e+01     
  90.000         247.000           -3.121e+00          -3.180e+01             101.679          -3.127e+00              77.434           3.641e+01     
  90.000         248.000           -2.858e+00          -3.430e+01              93.057          -2.861e+00              80.404           4.000e+01     
  90.000         249.000           -2.579e+00          -3.721e+01              77.090          -2.580e+00              83.153           4.000e+01     
  90.000         250.000           -2.291e+00          -3.955e+01              47.656          -2.292e+00              85.681           4.000e+01     
  90.000         251.000           -2.000e+00          -3.897e+01              11.894          -2.001e+00              87.994           3.723e+01     
  90.000         252.000           -1.710e+00          -3.642e+01             348.711          -1.711e+00              90.101           3.488e+01     
  90.000         253.000           -1.424e+00          -3.392e+01             336.522          -1.426e+00              92.014           3.339e+01     
  90.000         254.000           -1.146e+00          -3.188e+01             329.664          -1.149e+00              93.745           3.237e+01     
  90.000         255.000           -8.776e-01          -3.024e+01             325.413          -8.827e-01              95.310           3.167e+01     
  90.000         256.000           -6.218e-01          -2.891e+01             322.570          -6.282e-01              96.720           3.117e+01     
  90.000         257.000           -3.797e-01          -2.780e+01             320.558          -3.876e-01              97.990           3.082e+01     
  90.000         258.000           -1.527e-01          -2.688e+01             319.075          -1.619e-01              99.130           3.058e+01     
  90.000         259.000            5.837e-02          -2.611e+01             317.945           4.786e-02             100.154           3.042e+01     
  90.000         260.000            2.527e-01          -2.545e+01             317.062           2.410e-01             101.070           3.033e+01     
  90.000         261.000            4.297e-01          -2.490e+01             316.359           4.169e-01             101.888           3.028e+01     
  90.000         262.000            5.889e-01          -2.444e+01             315.790           5.752e-01             102.616           3.027e+01     
  90.000         263.000            7.300e-01          -2.406e+01             315.322           7.155e-01             103.263           3.030e+01     
  90.000         264.000            8.526e-01          -2.375e+01             314.933           8.375e-01             103.835           3.035e+01     
  90.000         265.000            9.565e-01          -2.350e+01             314.606           9.409e-01             104.337           3.042e+01     
  90.000         266.000            1.041e+00          -2.332e+01             314.328           1.026e+00             104.774           3.051e+01     
  90.000         267.000            1.107e+00          -2.319e+01             314.089           1.091e+00             105.152           3.062e+01     
  90.000         268.000            1.154e+00          -2.313e+01             313.881           1.137e+00             105.473           3.074e+01     
  90.000         269.000            1.180e+00          -2.311e+01             313.697           1.164e+00             105.742           3.088e+01     
  90.000         270.000            1.187e+00          -2.315e+01             313.532           1.171e+00             105.959           3.104e+01     
  90.000         271.000            1.173e+00          -2.325e+01             313.381           1.158e+00             106.129           3.122e+01     
  90.000         272.000            1.139e+00          -2.340e+01             313.239           1.124e+00             106.251           3.141e+01     
  90.000         273.000            1.084e+00          -2.361e+01             313.102           1.069e+00             106.326           3.163e+01     
  90.000         274.000            1.007e+00          -2.389e+01             312.965           9.926e-01             106.356           3.188e+01     
  90.000         275.000            9.075e-01          -2.423e+01             312.824           8.941e-01             106.339           3.216e+01     
  90.000         276.000            7.853e-01          -2.465e+01             312.671           7.729e-01             106.274           3.248e+01     
  90.000         277.000            6.395e-01          -2.515e+01             312.500           6.280e-01             106.160           3.285e+01     
  90.000         278.000            4.692e-01          -2.574e+01             312.301           4.588e-01             105.994           3.329e+01     
  90.000         279.000            2.733e-01          -2.645e+01             312.060           2.640e-01             105.772           3.380e+01     
  90.000         280.000            5.064e-02          -2.729e+01             311.757           4.261e-02             105.490           3.442e+01     
  90.000         281.000           -2.000e-01          -2.829e+01             311.360          -2.068e-01             105.140           3.519e+01     
  90.000         282.000           -4.803e-01          -2.951e+01             310.814          -4.857e-01             104.716           3.617e+01     
  90.000         283.000           -7.918e-01          -3.102e+01             310.019          -7.959e-01             104.207           3.745e+01     
  90.000         284.000           -1.137e+00          -3.296e+01             308.763          -1.139e+00             103.601           3.925e+01     
  90.000         285.000           -1.517e+00          -3.558e+01             306.521          -1.518e+00             102.882           4.000e+01     
  90.000         286.000           -1.935e+00          -3.951e+01             301.509          -1.935e+00             102.028           4.000e+01     
  90.000         287.000           -2.393e+00          -4.667e+01             282.438          -2.394e+00             101.016           4.000e+01     
  90.000         288.000           -2.896e+00          -4.866e+01             178.445          -2.896e+00              99.810           4.000e+01     
  90.000         289.000           -3.445e+00          -4.018e+01             150.332          -3.446e+00              98.369           3.881e+01     
  90.000         290.000           -4.044e+00          -3.560e+01             144.226          -4.047e+00              96.636           3.419e+01     
  90.000         291.000           -4.696e+00          -3.254e+01             141.684          -4.703e+00              94.537           3.054e+01     
  90.000         292.000           -5.402e+00          -3.025e+01             140.323          -5.416e+00              91.975           2.737e+01     
  90.000         293.000           -6.162e+00          -2.841e+01             139.496          -6.188e+00              88.818           2.447e+01     
  90.000         294.000           -6.970e+00          -2.688e+01             138.954          -7.015e+00              84.894           2.173e+01     
  90.000         295.000           -7.811e+00          -2.557e+01             138.584          -7.885e+00              79.984           1.910e+01     
  90.000         296.000           -8.654e+00          -2.443e+01             138.326          -8.770e+00              73.821           1.660e+01     
  90.000         297.000           -9.443e+00          -2.343e+01             138.143          -9.620e+00              66.134           1.428e+01     
  90.000         298.000           -1.009e+01          -2.253e+01             138.015          -1.035e+01              56.758           1.230e+01     
  90.000         299.000           -1.049e+01          -2.173e+01             137.928          -1.083e+01              45.839           1.090e+01     
  90.000         300.000           -1.056e+01          -2.100e+01             137.871          -1.097e+01              34.015           1.034e+01     
  90.000         301.000           -1.027e+01          -2.033e+01             137.839          -1.073e+01              22.322           1.069e+01     
  90.000         302.000           -9.696e+00          -1.973e+01             137.827          -1.015e+01              11.738           1.178e+01     
  90.000         303.000           -8.930e+00          -1.918e+01             137.830          -9.361e+00               2.789           1.330e+01     
  90.000         304.000           -8.075e+00          -1.867e+01             137.846          -8.471e+00             355.533           1.499e+01     
  90.000         305.000           -7.200e+00          -1.820e+01             137.872          -7.559e+00             349.767           1.672e+01     
  90.000         306.000           -6.347e+00          -1.778e+01             137.908          -6.671e+00             345.214           1.840e+01     
  90.000         307.000           -5.536e+00          -1.739e+01             137.951          -5.829e+00             341.617           1.999e+01     
  90.000         308.000           -4.776e+00          -1.703e+01             138.000          -5.043e+00             338.765           2.147e+01     
  90.000         309.000           -4.071e+00          -1.670e+01             138.054          -4.314e+00             336.495           2.283e+01     
  90.000         310.000           -3.419e+00          -1.641e+01             138.112          -3.643e+00             334.685           2.407e+01     
  90.000         311.000           -2.817e+00          -1.614e+01             138.175          -3.024e+00             333.243           2.520e+01     
  90.000         312.000           -2.264e+00          -1.589e+01             138.240          -2.456e+00             332.096           2.622e+01     
  90.000         313.000           -1.754e+00          -1.567e+01             138.305          -1.934e+00             331.193           2.712e+01     
  90.000         314.000           -1.286e+00          -1.548e+01             138.375          -1.454e+00             330.491           2.791e+01     
  90.000         315.000           -8.557e-01          -1.531e+01             138.446          -1.014e+00             329.960           2.860e+01     
  90.000         316.000           -4.611e-01          -1.516e+01             138.518          -6.108e-01             329.572           2.919e+01     
  90.000         317.000           -9.986e-02          -1.504e+01             138.590          -2.415e-01             329.309           2.968e+01     
  90.000         318.000            2.307e-01          -1.493e+01             138.664           9.641e-02             329.153           3.009e+01     
  90.000         319.000            5.323e-01          -1.485e+01             138.737           4.047e-01             329.093           3.041e+01     
  90.000         320.000            8.067e-01          -1.479e+01             138.811           6.854e-01             329.116           3.066e+01     
  90.000         321.000            1.055e+00          -1.475e+01             138.884           9.399e-01             329.215           3.084e+01     
  90.000         322.000            1.280e+00          -1.473e+01             138.956           1.170e+00             329.383           3.096e+01     
  90.000         323.000            1.481e+00          -1.473e+01             139.028           1.376e+00             329.612           3.103e+01     
  90.000         324.000            1.661e+00          -1.476e+01             139.100           1.561e+00             329.898           3.106e+01     
  90.000         325.000            1.820e+00          -1.480e+01             139.170           1.724e+00             330.238           3.105e+01     
  90.000         326.000            1.958e+00          -1.487e+01             139.240           1.867e+00             330.627           3.101e+01     
  90.000         327.000            2.078e+00          -1.496e+01             139.308           1.991e+00             331.062           3.094e+01     
  90.000         328.000            2.179e+00          -1.507e+01             139.376           2.097e+00             331.541           3.085e+01     
  90.000         329.000            2.263e+00          -1.521e+01             139.444           2.184e+00             332.062           3.075e+01     
  90.000         330.000            2.330e+00          -1.537e+01             139.511           2.255e+00             332.623           3.065e+01     
  90.000         331.000            2.380e+00          -1.555e+01             139.578           2.309e+00             333.223           3.054e+01     
  90.000         332.000            2.414e+00          -1.576e+01             139.645           2.347e+00             333.861           3.043e+01     
  90.000         333.000            2.433e+00          -1.600e+01             139.713           2.370e+00             334.535           3.033e+01     
  90.000         334.000            2.437e+00          -1.627e+01             139.783           2.378e+00             335.246           3.024e+01     
  90.000         335.000            2.427e+00          -1.657e+01             139.856           2.372e+00             335.992           3.017e+01     
  90.000         336.000            2.403e+00          -1.690e+01             139.932           2.352e+00             336.773           3.011e+01     
  90.000         337.000            2.365e+00          -1.727e+01             140.014           2.318e+00             337.589           3.008e+01     
  90.000         338.000            2.315e+00          -1.768e+01             140.102           2.271e+00             338.440           3.008e+01     
  90.000         339.000            2.251e+00          -1.813e+01             140.201           2.211e+00             339.325           3.011e+01     
  90.000         340.000            2.176e+00          -1.863e+01             140.313           2.140e+00             340.246           3.018e+01     
  90.000         341.000            2.089e+00          -1.919e+01             140.443           2.056e+00             341.201           3.031e+01     
  90.000         342.000            1.990e+00          -1.980e+01             140.595           1.961e+00             342.192           3.049e+01     
  90.000         343.000            1.881e+00          -2.049e+01             140.780           1.855e+00             343.219           3.075e+01     
  90.000         344.000            1.761e+00          -2.126e+01             141.007           1.739e+00             344.282           3.110e+01     
  90.000         345.000            1.631e+00          -2.212e+01             141.293           1.612e+00             345.382           3.155e+01     
  90.000         346.000            1.491e+00          -2.311e+01             141.664           1.476e+00             346.519           3.214e+01     
  90.000         347.000            1.343e+00          -2.425e+01             142.159           1.331e+00             347.693           3.291e+01     
  90.000         348.000            1.186e+00          -2.558e+01             142.846           1.176e+00             348.906           3.392e+01     
  90.000         349.000            1.021e+00          -2.718e+01             143.847           1.014e+00             350.157           3.528e+01     
  90.000         350.000            8.484e-01          -2.917e+01             145.414           8.440e-01             351.446           3.718e+01     
  90.000         351.000            6.694e-01          -3.177e+01             148.148           6.669e-01             352.775           4.000e+01     
  90.000         352.000            4.843e-01          -3.545e+01             153.918           4.832e-01             354.143           4.000e+01     
  90.000         353.000            2.938e-01          -4.144e+01             172.025           2.936e-01             355.550           4.000e+01     
  90.000         354.000            9.875e-02          -4.541e+01             252.316           9.863e-02             356.996           4.000e+01     
  90.000         355.000           -1.002e-01          -3.806e+01             294.129          -1.009e-01             358.481           3.886e+01     
  90.000         356.000           -3.023e-01          -3.343e+01             303.674          -3.044e-01               0.003           3.472e+01     
  90.000         357.000           -5.066e-01          -3.037e+01             307.510          -5.111e-01               1.563           3.169e+01     
  90.000         358.000           -7.123e-01          -2.810e+01             309.516          -7.203e-01               3.158           2.927e+01     
  90.000         359.000           -9.186e-01          -2.632e+01             310.716          -9.311e-01               4.788           2.723e+01     
