Theta [deg.]  Phi   [deg.]  Abs(Grlz)[dBi   ]   Abs(Theta)[dBi   ]  Phase(Theta)[deg.]  Abs(Phi  )[dBi   ]  Phase(Phi  )[deg.]  Ax.Ratio[dB    ]    
------------------------------------------------------------------------------------------------------------------------------------------------------
   0.000          90.000            1.764e+00          -2.828e+00             209.351          -8.863e-02              89.859           5.490e+00     
   1.000          90.000            1.757e+00          -2.854e+00             209.339          -8.657e-02              90.005           5.481e+00     
   2.000          90.000            1.748e+00          -2.882e+00             209.327          -8.526e-02              90.155           5.473e+00     
   3.000          90.000            1.737e+00          -2.915e+00             209.316          -8.473e-02              90.309           5.466e+00     
   4.000          90.000            1.725e+00          -2.950e+00             209.304          -8.499e-02              90.466           5.461e+00     
   5.000          90.000            1.711e+00          -2.989e+00             209.293          -8.604e-02              90.628           5.457e+00     
   6.000          90.000            1.696e+00          -3.031e+00             209.282          -8.787e-02              90.793           5.454e+00     
   7.000          90.000            1.679e+00          -3.076e+00             209.270          -9.047e-02              90.962           5.453e+00     
   8.000          90.000            1.660e+00          -3.125e+00             209.260          -9.385e-02              91.134           5.453e+00     
   9.000          90.000            1.640e+00          -3.177e+00             209.249          -9.799e-02              91.310           5.455e+00     
  10.000          90.000            1.619e+00          -3.233e+00             209.238          -1.029e-01              91.490           5.459e+00     
  11.000          90.000            1.596e+00          -3.292e+00             209.228          -1.085e-01              91.673           5.465e+00     
  12.000          90.000            1.571e+00          -3.354e+00             209.218          -1.149e-01              91.859           5.472e+00     
  13.000          90.000            1.545e+00          -3.419e+00             209.208          -1.220e-01              92.049           5.482e+00     
  14.000          90.000            1.518e+00          -3.488e+00             209.199          -1.299e-01              92.241           5.494e+00     
  15.000          90.000            1.490e+00          -3.560e+00             209.189          -1.384e-01              92.437           5.508e+00     
  16.000          90.000            1.460e+00          -3.635e+00             209.180          -1.477e-01              92.636           5.524e+00     
  17.000          90.000            1.429e+00          -3.713e+00             209.171          -1.576e-01              92.837           5.543e+00     
  18.000          90.000            1.397e+00          -3.795e+00             209.163          -1.682e-01              93.042           5.564e+00     
  19.000          90.000            1.363e+00          -3.880e+00             209.155          -1.794e-01              93.249           5.588e+00     
  20.000          90.000            1.329e+00          -3.968e+00             209.147          -1.913e-01              93.458           5.614e+00     
  21.000          90.000            1.293e+00          -4.060e+00             209.140          -2.038e-01              93.670           5.643e+00     
  22.000          90.000            1.256e+00          -4.155e+00             209.133          -2.169e-01              93.885           5.676e+00     
  23.000          90.000            1.219e+00          -4.253e+00             209.127          -2.306e-01              94.102           5.711e+00     
  24.000          90.000            1.180e+00          -4.354e+00             209.121          -2.448e-01              94.321           5.749e+00     
  25.000          90.000            1.140e+00          -4.458e+00             209.116          -2.596e-01              94.542           5.791e+00     
  26.000          90.000            1.100e+00          -4.566e+00             209.111          -2.749e-01              94.765           5.836e+00     
  27.000          90.000            1.058e+00          -4.677e+00             209.107          -2.906e-01              94.989           5.884e+00     
  28.000          90.000            1.016e+00          -4.791e+00             209.104          -3.069e-01              95.216           5.935e+00     
  29.000          90.000            9.731e-01          -4.909e+00             209.102          -3.236e-01              95.444           5.991e+00     
  30.000          90.000            9.294e-01          -5.029e+00             209.100          -3.407e-01              95.673           6.050e+00     
  31.000          90.000            8.851e-01          -5.153e+00             209.100          -3.583e-01              95.904           6.112e+00     
  32.000          90.000            8.403e-01          -5.281e+00             209.100          -3.762e-01              96.136           6.179e+00     
  33.000          90.000            7.948e-01          -5.411e+00             209.102          -3.945e-01              96.369           6.249e+00     
  34.000          90.000            7.489e-01          -5.545e+00             209.105          -4.130e-01              96.603           6.323e+00     
  35.000          90.000            7.026e-01          -5.682e+00             209.109          -4.319e-01              96.838           6.401e+00     
  36.000          90.000            6.558e-01          -5.822e+00             209.114          -4.511e-01              97.073           6.484e+00     
  37.000          90.000            6.088e-01          -5.966e+00             209.121          -4.705e-01              97.309           6.570e+00     
  38.000          90.000            5.614e-01          -6.113e+00             209.129          -4.901e-01              97.546           6.661e+00     
  39.000          90.000            5.139e-01          -6.264e+00             209.140          -5.100e-01              97.782           6.756e+00     
  40.000          90.000            4.661e-01          -6.417e+00             209.151          -5.299e-01              98.019           6.855e+00     
  41.000          90.000            4.182e-01          -6.575e+00             209.165          -5.500e-01              98.256           6.959e+00     
  42.000          90.000            3.703e-01          -6.735e+00             209.181          -5.703e-01              98.492           7.067e+00     
  43.000          90.000            3.224e-01          -6.900e+00             209.200          -5.905e-01              98.728           7.180e+00     
  44.000          90.000            2.745e-01          -7.067e+00             209.220          -6.109e-01              98.964           7.298e+00     
  45.000          90.000            2.267e-01          -7.238e+00             209.243          -6.312e-01              99.199           7.420e+00     
  46.000          90.000            1.791e-01          -7.413e+00             209.269          -6.516e-01              99.433           7.547e+00     
  47.000          90.000            1.316e-01          -7.592e+00             209.298          -6.719e-01              99.666           7.678e+00     
  48.000          90.000            8.447e-02          -7.774e+00             209.330          -6.921e-01              99.899           7.815e+00     
  49.000          90.000            3.760e-02          -7.960e+00             209.365          -7.122e-01             100.130           7.957e+00     
  50.000          90.000           -8.902e-03          -8.150e+00             209.404          -7.322e-01             100.359           8.104e+00     
  51.000          90.000           -5.499e-02          -8.344e+00             209.447          -7.521e-01             100.587           8.256e+00     
  52.000          90.000           -1.006e-01          -8.542e+00             209.493          -7.717e-01             100.814           8.413e+00     
  53.000          90.000           -1.457e-01          -8.744e+00             209.544          -7.912e-01             101.038           8.575e+00     
  54.000          90.000           -1.903e-01          -8.950e+00             209.600          -8.104e-01             101.261           8.744e+00     
  55.000          90.000           -2.342e-01          -9.160e+00             209.660          -8.293e-01             101.482           8.917e+00     
  56.000          90.000           -2.775e-01          -9.375e+00             209.726          -8.480e-01             101.700           9.097e+00     
  57.000          90.000           -3.201e-01          -9.595e+00             209.797          -8.663e-01             101.916           9.283e+00     
  58.000          90.000           -3.620e-01          -9.819e+00             209.875          -8.842e-01             102.129           9.474e+00     
  59.000          90.000           -4.030e-01          -1.005e+01             209.958          -9.018e-01             102.340           9.672e+00     
  60.000          90.000           -4.433e-01          -1.028e+01             210.049          -9.190e-01             102.548           9.877e+00     
  61.000          90.000           -4.826e-01          -1.052e+01             210.147          -9.358e-01             102.753           1.009e+01     
  62.000          90.000           -5.211e-01          -1.077e+01             210.253          -9.520e-01             102.954           1.031e+01     
  63.000          90.000           -5.586e-01          -1.102e+01             210.367          -9.679e-01             103.153           1.053e+01     
  64.000          90.000           -5.951e-01          -1.128e+01             210.490          -9.832e-01             103.348           1.076e+01     
  65.000          90.000           -6.306e-01          -1.154e+01             210.624          -9.980e-01             103.540           1.101e+01     
  66.000          90.000           -6.651e-01          -1.181e+01             210.767          -1.012e+00             103.728           1.125e+01     
  67.000          90.000           -6.984e-01          -1.209e+01             210.922          -1.026e+00             103.912           1.151e+01     
  68.000          90.000           -7.306e-01          -1.237e+01             211.090          -1.039e+00             104.093           1.178e+01     
  69.000          90.000           -7.617e-01          -1.266e+01             211.271          -1.051e+00             104.270           1.205e+01     
  70.000          90.000           -7.916e-01          -1.296e+01             211.466          -1.063e+00             104.442           1.234e+01     
  71.000          90.000           -8.204e-01          -1.327e+01             211.678          -1.075e+00             104.611           1.264e+01     
  72.000          90.000           -8.478e-01          -1.359e+01             211.906          -1.085e+00             104.775           1.295e+01     
  73.000          90.000           -8.741e-01          -1.392e+01             212.154          -1.095e+00             104.934           1.327e+01     
  74.000          90.000           -8.990e-01          -1.426e+01             212.423          -1.104e+00             105.090           1.360e+01     
  75.000          90.000           -9.227e-01          -1.461e+01             212.715          -1.112e+00             105.241           1.395e+01     
  76.000          90.000           -9.450e-01          -1.498e+01             213.033          -1.120e+00             105.387           1.431e+01     
  77.000          90.000           -9.660e-01          -1.535e+01             213.380          -1.127e+00             105.528           1.469e+01     
  78.000          90.000           -9.857e-01          -1.575e+01             213.759          -1.133e+00             105.665           1.508e+01     
  79.000          90.000           -1.004e+00          -1.615e+01             214.174          -1.139e+00             105.796           1.550e+01     
  80.000          90.000           -1.021e+00          -1.658e+01             214.630          -1.143e+00             105.923           1.593e+01     
  81.000          90.000           -1.037e+00          -1.702e+01             215.134          -1.147e+00             106.045           1.639e+01     
  82.000          90.000           -1.051e+00          -1.749e+01             215.691          -1.150e+00             106.162           1.688e+01     
  83.000          90.000           -1.063e+00          -1.798e+01             216.312          -1.153e+00             106.273           1.739e+01     
  84.000          90.000           -1.075e+00          -1.849e+01             217.006          -1.154e+00             106.380           1.794e+01     
  85.000          90.000           -1.085e+00          -1.904e+01             217.786          -1.155e+00             106.481           1.852e+01     
  86.000          90.000           -1.093e+00          -1.961e+01             218.670          -1.155e+00             106.577           1.914e+01     
  87.000          90.000           -1.100e+00          -2.023e+01             219.678          -1.154e+00             106.668           1.981e+01     
  88.000          90.000           -1.106e+00          -2.088e+01             220.839          -1.152e+00             106.753           2.054e+01     
  89.000          90.000           -1.110e+00          -2.158e+01             222.188          -1.149e+00             106.833           2.133e+01     
  90.000          90.000           -1.113e+00          -2.234e+01             223.776          -1.146e+00             106.908           2.220e+01     
  91.000          90.000           -1.114e+00          -2.315e+01             225.669          -1.142e+00             106.977           2.316e+01     
  92.000          90.000           -1.114e+00          -2.404e+01             227.960          -1.137e+00             107.041           2.425e+01     
  93.000          90.000           -1.113e+00          -2.501e+01             230.784          -1.131e+00             107.100           2.549e+01     
  94.000          90.000           -1.110e+00          -2.607e+01             234.337          -1.124e+00             107.153           2.693e+01     
  95.000          90.000           -1.106e+00          -2.723e+01             238.908          -1.116e+00             107.201           2.866e+01     
  96.000          90.000           -1.100e+00          -2.848e+01             244.927          -1.108e+00             107.244           3.082e+01     
  97.000          90.000           -1.093e+00          -2.980e+01             253.012          -1.099e+00             107.282           3.370e+01     
  98.000          90.000           -1.085e+00          -3.108e+01             263.925          -1.089e+00             107.314           3.803e+01     
  99.000          90.000           -1.075e+00          -3.210e+01             278.199          -1.078e+00             107.341           4.000e+01     
 100.000          90.000           -1.064e+00          -3.255e+01             295.168          -1.067e+00             107.362           4.000e+01     
 101.000          90.000           -1.052e+00          -3.221e+01             312.375          -1.055e+00             107.379           3.865e+01     
 102.000          90.000           -1.038e+00          -3.125e+01             327.172          -1.042e+00             107.390           3.409e+01     
 103.000          90.000           -1.023e+00          -2.998e+01             338.610          -1.028e+00             107.396           3.112e+01     
 104.000          90.000           -1.006e+00          -2.865e+01             347.107          -1.014e+00             107.397           2.892e+01     
 105.000          90.000           -9.889e-01          -2.738e+01             353.432          -9.989e-01             107.393           2.716e+01     
 106.000          90.000           -9.701e-01          -2.619e+01             358.229          -9.832e-01             107.384           2.571e+01     
 107.000          90.000           -9.500e-01          -2.511e+01               1.956          -9.667e-01             107.371           2.446e+01     
 108.000          90.000           -9.288e-01          -2.412e+01               4.922          -9.497e-01             107.352           2.337e+01     
 109.000          90.000           -9.064e-01          -2.321e+01               7.335          -9.320e-01             107.329           2.241e+01     
 110.000          90.000           -8.828e-01          -2.237e+01               9.336          -9.137e-01             107.300           2.154e+01     
 111.000          90.000           -8.581e-01          -2.160e+01              11.025          -8.949e-01             107.268           2.076e+01     
 112.000          90.000           -8.323e-01          -2.088e+01              12.472          -8.754e-01             107.230           2.004e+01     
 113.000          90.000           -8.054e-01          -2.021e+01              13.729          -8.554e-01             107.189           1.938e+01     
 114.000          90.000           -7.774e-01          -1.959e+01              14.833          -8.349e-01             107.142           1.876e+01     
 115.000          90.000           -7.484e-01          -1.900e+01              15.812          -8.139e-01             107.092           1.819e+01     
 116.000          90.000           -7.185e-01          -1.845e+01              16.691          -7.924e-01             107.037           1.765e+01     
 117.000          90.000           -6.876e-01          -1.792e+01              17.486          -7.705e-01             106.978           1.715e+01     
 118.000          90.000           -6.557e-01          -1.742e+01              18.209          -7.481e-01             106.915           1.668e+01     
 119.000          90.000           -6.230e-01          -1.695e+01              18.873          -7.253e-01             106.848           1.623e+01     
 120.000          90.000           -5.893e-01          -1.650e+01              19.485          -7.022e-01             106.777           1.581e+01     
 121.000          90.000           -5.549e-01          -1.607e+01              20.053          -6.787e-01             106.702           1.540e+01     
 122.000          90.000           -5.196e-01          -1.565e+01              20.583          -6.549e-01             106.623           1.502e+01     
 123.000          90.000           -4.836e-01          -1.525e+01              21.080          -6.308e-01             106.541           1.465e+01     
 124.000          90.000           -4.468e-01          -1.487e+01              21.547          -6.065e-01             106.455           1.430e+01     
 125.000          90.000           -4.094e-01          -1.451e+01              21.988          -5.819e-01             106.366           1.397e+01     
 126.000          90.000           -3.713e-01          -1.415e+01              22.407          -5.571e-01             106.273           1.365e+01     
 127.000          90.000           -3.326e-01          -1.381e+01              22.804          -5.321e-01             106.178           1.334e+01     
 128.000          90.000           -2.933e-01          -1.348e+01              23.183          -5.070e-01             106.078           1.305e+01     
 129.000          90.000           -2.535e-01          -1.316e+01              23.545          -4.817e-01             105.976           1.276e+01     
 130.000          90.000           -2.132e-01          -1.285e+01              23.892          -4.564e-01             105.871           1.249e+01     
 131.000          90.000           -1.724e-01          -1.255e+01              24.225          -4.310e-01             105.763           1.223e+01     
 132.000          90.000           -1.312e-01          -1.226e+01              24.545          -4.056e-01             105.652           1.198e+01     
 133.000          90.000           -8.965e-02          -1.198e+01              24.854          -3.801e-01             105.538           1.173e+01     
 134.000          90.000           -4.776e-02          -1.171e+01              25.151          -3.547e-01             105.422           1.150e+01     
 135.000          90.000           -5.583e-03          -1.144e+01              25.439          -3.294e-01             105.303           1.127e+01     
 136.000          90.000            3.683e-02          -1.118e+01              25.717          -3.041e-01             105.182           1.105e+01     
 137.000          90.000            7.945e-02          -1.093e+01              25.986          -2.790e-01             105.058           1.084e+01     
 138.000          90.000            1.222e-01          -1.069e+01              26.248          -2.540e-01             104.932           1.064e+01     
 139.000          90.000            1.651e-01          -1.045e+01              26.501          -2.292e-01             104.804           1.044e+01     
 140.000          90.000            2.080e-01          -1.022e+01              26.747          -2.046e-01             104.674           1.025e+01     
 141.000          90.000            2.510e-01          -9.994e+00              26.986          -1.802e-01             104.542           1.007e+01     
 142.000          90.000            2.939e-01          -9.775e+00              27.218          -1.561e-01             104.408           9.890e+00     
 143.000          90.000            3.368e-01          -9.562e+00              27.444          -1.323e-01             104.272           9.718e+00     
 144.000          90.000            3.795e-01          -9.354e+00              27.664          -1.088e-01             104.135           9.553e+00     
 145.000          90.000            4.220e-01          -9.151e+00              27.878          -8.561e-02             103.995           9.393e+00     
 146.000          90.000            4.644e-01          -8.954e+00              28.087          -6.283e-02             103.855           9.239e+00     
 147.000          90.000            5.065e-01          -8.763e+00              28.290          -4.045e-02             103.712           9.090e+00     
 148.000          90.000            5.483e-01          -8.576e+00              28.488          -1.850e-02             103.569           8.947e+00     
 149.000          90.000            5.897e-01          -8.394e+00              28.680           2.999e-03             103.424           8.808e+00     
 150.000          90.000            6.308e-01          -8.217e+00              28.868           2.402e-02             103.278           8.675e+00     
 151.000          90.000            6.714e-01          -8.045e+00              29.051           4.453e-02             103.131           8.546e+00     
 152.000          90.000            7.115e-01          -7.877e+00              29.229           6.451e-02             102.982           8.423e+00     
 153.000          90.000            7.510e-01          -7.714e+00              29.403           8.394e-02             102.833           8.303e+00     
 154.000          90.000            7.900e-01          -7.556e+00              29.572           1.028e-01             102.683           8.189e+00     
 155.000          90.000            8.284e-01          -7.402e+00              29.737           1.210e-01             102.532           8.079e+00     
 156.000          90.000            8.661e-01          -7.252e+00              29.897           1.387e-01             102.380           7.973e+00     
 157.000          90.000            9.031e-01          -7.107e+00              30.053           1.557e-01             102.228           7.872e+00     
 158.000          90.000            9.394e-01          -6.966e+00              30.205           1.720e-01             102.075           7.775e+00     
 159.000          90.000            9.748e-01          -6.830e+00              30.353           1.877e-01             101.921           7.682e+00     
 160.000          90.000            1.009e+00          -6.698e+00              30.497           2.026e-01             101.767           7.593e+00     
 161.000          90.000            1.043e+00          -6.569e+00              30.638           2.168e-01             101.613           7.508e+00     
 162.000          90.000            1.076e+00          -6.446e+00              30.774           2.303e-01             101.458           7.427e+00     
 163.000          90.000            1.108e+00          -6.326e+00              30.906           2.431e-01             101.303           7.349e+00     
 164.000          90.000            1.139e+00          -6.210e+00              31.035           2.550e-01             101.148           7.276e+00     
 165.000          90.000            1.169e+00          -6.099e+00              31.160           2.662e-01             100.993           7.206e+00     
 166.000          90.000            1.197e+00          -5.991e+00              31.281           2.766e-01             100.838           7.140e+00     
 167.000          90.000            1.225e+00          -5.888e+00              31.398           2.862e-01             100.683           7.077e+00     
 168.000          90.000            1.252e+00          -5.788e+00              31.513           2.949e-01             100.528           7.018e+00     
 169.000          90.000            1.277e+00          -5.693e+00              31.623           3.028e-01             100.373           6.963e+00     
 170.000          90.000            1.301e+00          -5.601e+00              31.730           3.099e-01             100.219           6.910e+00     
 171.000          90.000            1.324e+00          -5.514e+00              31.834           3.161e-01             100.065           6.862e+00     
 172.000          90.000            1.346e+00          -5.430e+00              31.934           3.215e-01              99.911           6.816e+00     
 173.000          90.000            1.366e+00          -5.351e+00              32.031           3.259e-01              99.757           6.773e+00     
 174.000          90.000            1.385e+00          -5.275e+00              32.124           3.295e-01              99.604           6.734e+00     
 175.000          90.000            1.403e+00          -5.204e+00              32.214           3.322e-01              99.452           6.697e+00     
 176.000          90.000            1.419e+00          -5.136e+00              32.301           3.341e-01              99.300           6.664e+00     
 177.000          90.000            1.434e+00          -5.073e+00              32.385           3.350e-01              99.149           6.633e+00     
 178.000          90.000            1.447e+00          -5.013e+00              32.466           3.350e-01              98.999           6.606e+00     
 179.000          90.000            1.459e+00          -4.957e+00              32.543           3.342e-01              98.849           6.581e+00     
 180.000          90.000            1.470e+00          -4.905e+00              32.618           3.324e-01              98.701           6.559e+00     
 179.000         270.000            1.479e+00          -4.857e+00             212.689           3.297e-01             278.553           6.540e+00     
 178.000         270.000            1.486e+00          -4.813e+00             212.757           3.262e-01             278.406           6.523e+00     
 177.000         270.000            1.492e+00          -4.773e+00             212.823           3.217e-01             278.260           6.509e+00     
 176.000         270.000            1.497e+00          -4.737e+00             212.885           3.163e-01             278.115           6.497e+00     
 175.000         270.000            1.500e+00          -4.705e+00             212.944           3.101e-01             277.971           6.488e+00     
 174.000         270.000            1.501e+00          -4.677e+00             213.001           3.030e-01             277.828           6.482e+00     
 173.000         270.000            1.501e+00          -4.653e+00             213.055           2.950e-01             277.686           6.477e+00     
 172.000         270.000            1.499e+00          -4.633e+00             213.105           2.861e-01             277.546           6.476e+00     
 171.000         270.000            1.496e+00          -4.617e+00             213.154           2.763e-01             277.407           6.476e+00     
 170.000         270.000            1.491e+00          -4.605e+00             213.199           2.657e-01             277.269           6.479e+00     
 169.000         270.000            1.484e+00          -4.596e+00             213.242           2.543e-01             277.133           6.484e+00     
 168.000         270.000            1.476e+00          -4.592e+00             213.282           2.420e-01             276.998           6.492e+00     
 167.000         270.000            1.466e+00          -4.592e+00             213.319           2.289e-01             276.864           6.502e+00     
 166.000         270.000            1.454e+00          -4.596e+00             213.354           2.150e-01             276.732           6.514e+00     
 165.000         270.000            1.441e+00          -4.604e+00             213.386           2.003e-01             276.601           6.528e+00     
 164.000         270.000            1.427e+00          -4.616e+00             213.415           1.848e-01             276.472           6.544e+00     
 163.000         270.000            1.410e+00          -4.632e+00             213.443           1.685e-01             276.344           6.563e+00     
 162.000         270.000            1.393e+00          -4.653e+00             213.467           1.515e-01             276.218           6.584e+00     
 161.000         270.000            1.373e+00          -4.677e+00             213.489           1.338e-01             276.093           6.607e+00     
 160.000         270.000            1.352e+00          -4.706e+00             213.509           1.153e-01             275.970           6.633e+00     
 159.000         270.000            1.330e+00          -4.739e+00             213.527           9.618e-02             275.849           6.661e+00     
 158.000         270.000            1.306e+00          -4.776e+00             213.542           7.636e-02             275.730           6.691e+00     
 157.000         270.000            1.280e+00          -4.817e+00             213.555           5.588e-02             275.612           6.724e+00     
 156.000         270.000            1.253e+00          -4.863e+00             213.565           3.476e-02             275.495           6.759e+00     
 155.000         270.000            1.224e+00          -4.913e+00             213.574           1.304e-02             275.381           6.796e+00     
 154.000         270.000            1.194e+00          -4.968e+00             213.580          -9.279e-03             275.268           6.836e+00     
 153.000         270.000            1.163e+00          -5.026e+00             213.584          -3.216e-02             275.157           6.879e+00     
 152.000         270.000            1.130e+00          -5.090e+00             213.586          -5.559e-02             275.048           6.924e+00     
 151.000         270.000            1.095e+00          -5.158e+00             213.585          -7.953e-02             274.940           6.972e+00     
 150.000         270.000            1.059e+00          -5.230e+00             213.583          -1.040e-01             274.834           7.023e+00     
 149.000         270.000            1.022e+00          -5.307e+00             213.579          -1.289e-01             274.730           7.076e+00     
 148.000         270.000            9.839e-01          -5.389e+00             213.572          -1.542e-01             274.628           7.133e+00     
 147.000         270.000            9.442e-01          -5.475e+00             213.564          -1.799e-01             274.527           7.193e+00     
 146.000         270.000            9.033e-01          -5.567e+00             213.554          -2.061e-01             274.428           7.256e+00     
 145.000         270.000            8.612e-01          -5.663e+00             213.542          -2.326e-01             274.331           7.323e+00     
 144.000         270.000            8.179e-01          -5.764e+00             213.528          -2.594e-01             274.236           7.393e+00     
 143.000         270.000            7.735e-01          -5.870e+00             213.512          -2.865e-01             274.142           7.467e+00     
 142.000         270.000            7.281e-01          -5.982e+00             213.494          -3.139e-01             274.050           7.545e+00     
 141.000         270.000            6.816e-01          -6.099e+00             213.474          -3.415e-01             273.959           7.627e+00     
 140.000         270.000            6.341e-01          -6.221e+00             213.453          -3.694e-01             273.870           7.713e+00     
 139.000         270.000            5.857e-01          -6.349e+00             213.430          -3.974e-01             273.783           7.803e+00     
 138.000         270.000            5.364e-01          -6.482e+00             213.406          -4.255e-01             273.698           7.898e+00     
 137.000         270.000            4.863e-01          -6.621e+00             213.379          -4.538e-01             273.613           7.998e+00     
 136.000         270.000            4.355e-01          -6.766e+00             213.351          -4.822e-01             273.531           8.103e+00     
 135.000         270.000            3.839e-01          -6.918e+00             213.322          -5.106e-01             273.450           8.214e+00     
 134.000         270.000            3.317e-01          -7.075e+00             213.290          -5.391e-01             273.370           8.330e+00     
 133.000         270.000            2.789e-01          -7.239e+00             213.258          -5.675e-01             273.292           8.451e+00     
 132.000         270.000            2.256e-01          -7.410e+00             213.223          -5.959e-01             273.215           8.579e+00     
 131.000         270.000            1.719e-01          -7.588e+00             213.187          -6.243e-01             273.139           8.714e+00     
 130.000         270.000            1.177e-01          -7.773e+00             213.150          -6.525e-01             273.065           8.855e+00     
 129.000         270.000            6.332e-02          -7.966e+00             213.111          -6.806e-01             272.992           9.004e+00     
 128.000         270.000            8.666e-03          -8.166e+00             213.071          -7.086e-01             272.920           9.160e+00     
 127.000         270.000           -4.614e-02          -8.375e+00             213.029          -7.364e-01             272.849           9.324e+00     
 126.000         270.000           -1.010e-01          -8.592e+00             212.985          -7.639e-01             272.779           9.497e+00     
 125.000         270.000           -1.559e-01          -8.818e+00             212.940          -7.912e-01             272.710           9.678e+00     
 124.000         270.000           -2.107e-01          -9.053e+00             212.894          -8.182e-01             272.643           9.869e+00     
 123.000         270.000           -2.653e-01          -9.298e+00             212.846          -8.449e-01             272.576           1.007e+01     
 122.000         270.000           -3.196e-01          -9.554e+00             212.796          -8.713e-01             272.510           1.028e+01     
 121.000         270.000           -3.736e-01          -9.820e+00             212.745          -8.973e-01             272.444           1.051e+01     
 120.000         270.000           -4.272e-01          -1.010e+01             212.692          -9.229e-01             272.380           1.074e+01     
 119.000         270.000           -4.803e-01          -1.039e+01             212.638          -9.480e-01             272.316           1.099e+01     
 118.000         270.000           -5.327e-01          -1.069e+01             212.582          -9.728e-01             272.252           1.125e+01     
 117.000         270.000           -5.844e-01          -1.101e+01             212.524          -9.970e-01             272.190           1.153e+01     
 116.000         270.000           -6.354e-01          -1.135e+01             212.464          -1.021e+00             272.127           1.182e+01     
 115.000         270.000           -6.854e-01          -1.169e+01             212.402          -1.044e+00             272.065           1.213e+01     
 114.000         270.000           -7.344e-01          -1.206e+01             212.337          -1.067e+00             272.004           1.246e+01     
 113.000         270.000           -7.823e-01          -1.245e+01             212.271          -1.089e+00             271.943           1.281e+01     
 112.000         270.000           -8.291e-01          -1.286e+01             212.201          -1.110e+00             271.882           1.318e+01     
 111.000         270.000           -8.746e-01          -1.329e+01             212.129          -1.131e+00             271.821           1.357e+01     
 110.000         270.000           -9.188e-01          -1.375e+01             212.053          -1.151e+00             271.760           1.400e+01     
 109.000         270.000           -9.615e-01          -1.423e+01             211.973          -1.171e+00             271.699           1.445e+01     
 108.000         270.000           -1.003e+00          -1.475e+01             211.889          -1.190e+00             271.639           1.493e+01     
 107.000         270.000           -1.042e+00          -1.530e+01             211.799          -1.208e+00             271.578           1.545e+01     
 106.000         270.000           -1.080e+00          -1.590e+01             211.703          -1.225e+00             271.517           1.602e+01     
 105.000         270.000           -1.116e+00          -1.654e+01             211.600          -1.242e+00             271.456           1.663e+01     
 104.000         270.000           -1.150e+00          -1.724e+01             211.486          -1.258e+00             271.395           1.729e+01     
 103.000         270.000           -1.182e+00          -1.800e+01             211.360          -1.273e+00             271.334           1.803e+01     
 102.000         270.000           -1.212e+00          -1.884e+01             211.218          -1.288e+00             271.272           1.883e+01     
 101.000         270.000           -1.240e+00          -1.977e+01             211.054          -1.301e+00             271.210           1.973e+01     
 100.000         270.000           -1.266e+00          -2.082e+01             210.861          -1.314e+00             271.147           2.075e+01     
  99.000         270.000           -1.289e+00          -2.201e+01             210.624          -1.326e+00             271.084           2.191e+01     
  98.000         270.000           -1.311e+00          -2.340e+01             210.321          -1.337e+00             271.021           2.327e+01     
  97.000         270.000           -1.329e+00          -2.506e+01             209.910          -1.348e+00             270.957           2.488e+01     
  96.000         270.000           -1.346e+00          -2.713e+01             209.305          -1.357e+00             270.893           2.689e+01     
  95.000         270.000           -1.360e+00          -2.984e+01             208.290          -1.366e+00             270.828           2.952e+01     
  94.000         270.000           -1.371e+00          -3.381e+01             206.148          -1.374e+00             270.763           3.332e+01     
  93.000         270.000           -1.380e+00          -4.127e+01             198.266          -1.381e+00             270.697           4.000e+01     
  92.000         270.000           -1.386e+00          -4.787e+01              61.764          -1.387e+00             270.631           4.000e+01     
  91.000         270.000           -1.390e+00          -3.616e+01              39.163          -1.392e+00             270.564           3.692e+01     
  90.000         270.000           -1.391e+00          -3.124e+01              35.872          -1.396e+00             270.496           3.162e+01     
  89.000         270.000           -1.390e+00          -2.810e+01              34.542          -1.399e+00             270.428           2.835e+01     
  88.000         270.000           -1.386e+00          -2.580e+01              33.808          -1.402e+00             270.359           2.598e+01     
  87.000         270.000           -1.379e+00          -2.398e+01              33.334          -1.403e+00             270.290           2.412e+01     
  86.000         270.000           -1.370e+00          -2.247e+01              32.995          -1.404e+00             270.220           2.259e+01     
  85.000         270.000           -1.359e+00          -2.119e+01              32.737          -1.404e+00             270.150           2.130e+01     
  84.000         270.000           -1.344e+00          -2.007e+01              32.531          -1.403e+00             270.079           2.018e+01     
  83.000         270.000           -1.328e+00          -1.908e+01              32.359          -1.401e+00             270.008           1.919e+01     
  82.000         270.000           -1.308e+00          -1.819e+01              32.212          -1.398e+00             269.936           1.830e+01     
  81.000         270.000           -1.287e+00          -1.739e+01              32.083          -1.395e+00             269.864           1.751e+01     
  80.000         270.000           -1.263e+00          -1.665e+01              31.969          -1.390e+00             269.792           1.678e+01     
  79.000         270.000           -1.236e+00          -1.597e+01              31.866          -1.385e+00             269.719           1.612e+01     
  78.000         270.000           -1.208e+00          -1.534e+01              31.771          -1.379e+00             269.646           1.551e+01     
  77.000         270.000           -1.177e+00          -1.476e+01              31.683          -1.372e+00             269.573           1.494e+01     
  76.000         270.000           -1.144e+00          -1.421e+01              31.602          -1.364e+00             269.500           1.442e+01     
  75.000         270.000           -1.109e+00          -1.370e+01              31.525          -1.355e+00             269.426           1.393e+01     
  74.000         270.000           -1.072e+00          -1.321e+01              31.453          -1.346e+00             269.353           1.347e+01     
  73.000         270.000           -1.033e+00          -1.275e+01              31.384          -1.336e+00             269.280           1.304e+01     
  72.000         270.000           -9.929e-01          -1.232e+01              31.319          -1.325e+00             269.206           1.264e+01     
  71.000         270.000           -9.505e-01          -1.191e+01              31.257          -1.314e+00             269.133           1.226e+01     
  70.000         270.000           -9.064e-01          -1.152e+01              31.197          -1.301e+00             269.060           1.191e+01     
  69.000         270.000           -8.609e-01          -1.114e+01              31.139          -1.288e+00             268.988           1.157e+01     
  68.000         270.000           -8.138e-01          -1.079e+01              31.084          -1.274e+00             268.916           1.125e+01     
  67.000         270.000           -7.654e-01          -1.045e+01              31.031          -1.260e+00             268.845           1.095e+01     
  66.000         270.000           -7.156e-01          -1.012e+01              30.979          -1.245e+00             268.774           1.067e+01     
  65.000         270.000           -6.647e-01          -9.805e+00              30.929          -1.229e+00             268.703           1.040e+01     
  64.000         270.000           -6.127e-01          -9.504e+00              30.880          -1.213e+00             268.634           1.014e+01     
  63.000         270.000           -5.597e-01          -9.214e+00              30.833          -1.196e+00             268.565           9.902e+00     
  62.000         270.000           -5.057e-01          -8.936e+00              30.787          -1.179e+00             268.498           9.673e+00     
  61.000         270.000           -4.509e-01          -8.668e+00              30.743          -1.161e+00             268.431           9.455e+00     
  60.000         270.000           -3.954e-01          -8.409e+00              30.700          -1.142e+00             268.366           9.248e+00     
  59.000         270.000           -3.392e-01          -8.160e+00              30.658          -1.123e+00             268.302           9.052e+00     
  58.000         270.000           -2.825e-01          -7.920e+00              30.617          -1.104e+00             268.240           8.866e+00     
  57.000         270.000           -2.253e-01          -7.688e+00              30.577          -1.084e+00             268.178           8.689e+00     
  56.000         270.000           -1.678e-01          -7.464e+00              30.539          -1.063e+00             268.119           8.522e+00     
  55.000         270.000           -1.099e-01          -7.248e+00              30.501          -1.043e+00             268.061           8.362e+00     
  54.000         270.000           -5.187e-02          -7.039e+00              30.464          -1.022e+00             268.005           8.211e+00     
  53.000         270.000            6.308e-03          -6.837e+00              30.429          -1.000e+00             267.951           8.067e+00     
  52.000         270.000            6.452e-02          -6.642e+00              30.394          -9.785e-01             267.899           7.931e+00     
  51.000         270.000            1.227e-01          -6.453e+00              30.360          -9.564e-01             267.848           7.802e+00     
  50.000         270.000            1.808e-01          -6.270e+00              30.326          -9.341e-01             267.801           7.679e+00     
  49.000         270.000            2.386e-01          -6.094e+00              30.294          -9.116e-01             267.755           7.563e+00     
  48.000         270.000            2.962e-01          -5.923e+00              30.263          -8.889e-01             267.712           7.453e+00     
  47.000         270.000            3.535e-01          -5.758e+00              30.232          -8.660e-01             267.671           7.348e+00     
  46.000         270.000            4.103e-01          -5.599e+00              30.202          -8.430e-01             267.633           7.249e+00     
  45.000         270.000            4.667e-01          -5.444e+00              30.172          -8.199e-01             267.598           7.155e+00     
  44.000         270.000            5.225e-01          -5.295e+00              30.144          -7.967e-01             267.565           7.065e+00     
  43.000         270.000            5.777e-01          -5.151e+00              30.116          -7.734e-01             267.536           6.981e+00     
  42.000         270.000            6.322e-01          -5.013e+00              30.089          -7.501e-01             267.509           6.901e+00     
  41.000         270.000            6.860e-01          -4.878e+00              30.062          -7.268e-01             267.485           6.824e+00     
  40.000         270.000            7.390e-01          -4.749e+00              30.036          -7.035e-01             267.465           6.752e+00     
  39.000         270.000            7.911e-01          -4.624e+00              30.011          -6.803e-01             267.447           6.684e+00     
  38.000         270.000            8.423e-01          -4.504e+00              29.987          -6.572e-01             267.433           6.619e+00     
  37.000         270.000            8.926e-01          -4.388e+00              29.962          -6.342e-01             267.423           6.557e+00     
  36.000         270.000            9.419e-01          -4.277e+00              29.939          -6.113e-01             267.416           6.499e+00     
  35.000         270.000            9.901e-01          -4.170e+00              29.916          -5.887e-01             267.412           6.443e+00     
  34.000         270.000            1.037e+00          -4.067e+00              29.894          -5.662e-01             267.412           6.390e+00     
  33.000         270.000            1.083e+00          -3.969e+00              29.872          -5.439e-01             267.416           6.340e+00     
  32.000         270.000            1.128e+00          -3.874e+00              29.850          -5.220e-01             267.424           6.292e+00     
  31.000         270.000            1.171e+00          -3.784e+00              29.830          -5.003e-01             267.435           6.247e+00     
  30.000         270.000            1.214e+00          -3.698e+00              29.809          -4.789e-01             267.450           6.203e+00     
  29.000         270.000            1.255e+00          -3.615e+00              29.789          -4.578e-01             267.469           6.162e+00     
  28.000         270.000            1.294e+00          -3.537e+00              29.770          -4.371e-01             267.492           6.123e+00     
  27.000         270.000            1.332e+00          -3.462e+00              29.751          -4.168e-01             267.519           6.085e+00     
  26.000         270.000            1.369e+00          -3.392e+00              29.732          -3.969e-01             267.551           6.049e+00     
  25.000         270.000            1.405e+00          -3.325e+00              29.714          -3.775e-01             267.586           6.014e+00     
  24.000         270.000            1.438e+00          -3.262e+00              29.696          -3.585e-01             267.625           5.981e+00     
  23.000         270.000            1.471e+00          -3.202e+00              29.678          -3.400e-01             267.669           5.950e+00     
  22.000         270.000            1.502e+00          -3.147e+00              29.661          -3.219e-01             267.717           5.919e+00     
  21.000         270.000            1.531e+00          -3.095e+00              29.645          -3.045e-01             267.769           5.890e+00     
  20.000         270.000            1.559e+00          -3.047e+00              29.628          -2.875e-01             267.825           5.862e+00     
  19.000         270.000            1.585e+00          -3.002e+00              29.612          -2.712e-01             267.886           5.835e+00     
  18.000         270.000            1.609e+00          -2.961e+00              29.596          -2.554e-01             267.951           5.809e+00     
  17.000         270.000            1.632e+00          -2.924e+00              29.581          -2.402e-01             268.020           5.784e+00     
  16.000         270.000            1.654e+00          -2.890e+00              29.565          -2.256e-01             268.094           5.760e+00     
  15.000         270.000            1.673e+00          -2.860e+00              29.550          -2.117e-01             268.172           5.737e+00     
  14.000         270.000            1.691e+00          -2.834e+00              29.536          -1.985e-01             268.254           5.715e+00     
  13.000         270.000            1.707e+00          -2.811e+00              29.521          -1.859e-01             268.341           5.693e+00     
  12.000         270.000            1.722e+00          -2.791e+00              29.507          -1.740e-01             268.432           5.673e+00     
  11.000         270.000            1.735e+00          -2.775e+00              29.493          -1.628e-01             268.528           5.653e+00     
  10.000         270.000            1.746e+00          -2.763e+00              29.479          -1.523e-01             268.627           5.634e+00     
   9.000         270.000            1.755e+00          -2.754e+00              29.465          -1.425e-01             268.731           5.616e+00     
   8.000         270.000            1.763e+00          -2.748e+00              29.452          -1.335e-01             268.840           5.598e+00     
   7.000         270.000            1.769e+00          -2.746e+00              29.439          -1.252e-01             268.953           5.582e+00     
   6.000         270.000            1.774e+00          -2.748e+00              29.426          -1.177e-01             269.070           5.566e+00     
   5.000         270.000            1.776e+00          -2.753e+00              29.413          -1.109e-01             269.191           5.551e+00     
   4.000         270.000            1.777e+00          -2.761e+00              29.400          -1.049e-01             269.316           5.537e+00     
   3.000         270.000            1.777e+00          -2.773e+00              29.388          -9.965e-02             269.446           5.524e+00     
   2.000         270.000            1.774e+00          -2.788e+00              29.375          -9.519e-02             269.579           5.511e+00     
   1.000         270.000            1.770e+00          -2.806e+00              29.363          -9.152e-02             269.717           5.500e+00     
