Theta [deg.]  Phi   [deg.]  Abs(Grlz)[dBi   ]   Abs(Theta)[dBi   ]  Phase(Theta)[deg.]  Abs(Phi  )[dBi   ]  Phase(Phi  )[deg.]  Ax.Ratio[dB    ]    
------------------------------------------------------------------------------------------------------------------------------------------------------
   0.000          90.000            8.713e-02          -6.328e+00             322.705          -1.038e+00              60.030           5.419e+00     
   1.000          90.000            2.109e-01          -6.435e+00             325.502          -8.485e-01              62.377           5.697e+00     
   2.000          90.000            3.351e-01          -6.542e+00             328.408          -6.627e-01              64.647           5.966e+00     
   3.000          90.000            4.592e-01          -6.646e+00             331.420          -4.816e-01              66.844           6.228e+00     
   4.000          90.000            5.826e-01          -6.745e+00             334.536          -3.059e-01              68.973           6.480e+00     
   5.000          90.000            7.050e-01          -6.838e+00             337.753          -1.361e-01              71.039           6.724e+00     
   6.000          90.000            8.260e-01          -6.923e+00             341.065           2.756e-02              73.045           6.958e+00     
   7.000          90.000            9.450e-01          -6.997e+00             344.465           1.847e-01              74.997           7.183e+00     
   8.000          90.000            1.062e+00          -7.060e+00             347.942           3.351e-01              76.899           7.397e+00     
   9.000          90.000            1.176e+00          -7.109e+00             351.486           4.786e-01              78.753           7.602e+00     
  10.000          90.000            1.288e+00          -7.144e+00             355.083           6.151e-01              80.565           7.797e+00     
  11.000          90.000            1.396e+00          -7.162e+00             358.717           7.446e-01              82.337           7.981e+00     
  12.000          90.000            1.502e+00          -7.164e+00               2.373           8.670e-01              84.072           8.156e+00     
  13.000          90.000            1.603e+00          -7.149e+00               6.034           9.824e-01              85.774           8.321e+00     
  14.000          90.000            1.702e+00          -7.118e+00               9.684           1.091e+00              87.445           8.477e+00     
  15.000          90.000            1.796e+00          -7.071e+00              13.305           1.192e+00              89.087           8.623e+00     
  16.000          90.000            1.887e+00          -7.008e+00              16.883           1.287e+00              90.702           8.761e+00     
  17.000          90.000            1.973e+00          -6.931e+00              20.405           1.375e+00              92.294           8.889e+00     
  18.000          90.000            2.055e+00          -6.842e+00              23.858           1.456e+00              93.862           9.009e+00     
  19.000          90.000            2.134e+00          -6.742e+00              27.232           1.531e+00              95.411           9.121e+00     
  20.000          90.000            2.208e+00          -6.633e+00              30.519           1.600e+00              96.939           9.225e+00     
  21.000          90.000            2.277e+00          -6.516e+00              33.715           1.662e+00              98.450           9.321e+00     
  22.000          90.000            2.343e+00          -6.394e+00              36.814           1.719e+00              99.944           9.411e+00     
  23.000          90.000            2.404e+00          -6.267e+00              39.816           1.770e+00             101.422           9.493e+00     
  24.000          90.000            2.461e+00          -6.139e+00              42.718           1.816e+00             102.885           9.570e+00     
  25.000          90.000            2.513e+00          -6.010e+00              45.522           1.856e+00             104.335           9.641e+00     
  26.000          90.000            2.562e+00          -5.882e+00              48.229           1.891e+00             105.771           9.706e+00     
  27.000          90.000            2.606e+00          -5.755e+00              50.842           1.921e+00             107.194           9.767e+00     
  28.000          90.000            2.645e+00          -5.632e+00              53.365           1.946e+00             108.605           9.823e+00     
  29.000          90.000            2.681e+00          -5.513e+00              55.801           1.967e+00             110.003           9.876e+00     
  30.000          90.000            2.712e+00          -5.399e+00              58.153           1.984e+00             111.390           9.925e+00     
  31.000          90.000            2.740e+00          -5.291e+00              60.427           1.996e+00             112.765           9.971e+00     
  32.000          90.000            2.763e+00          -5.190e+00              62.626           2.004e+00             114.129           1.001e+01     
  33.000          90.000            2.782e+00          -5.095e+00              64.755           2.009e+00             115.481           1.006e+01     
  34.000          90.000            2.797e+00          -5.008e+00              66.817           2.010e+00             116.821           1.010e+01     
  35.000          90.000            2.809e+00          -4.929e+00              68.818           2.008e+00             118.149           1.014e+01     
  36.000          90.000            2.817e+00          -4.857e+00              70.760           2.003e+00             119.466           1.017e+01     
  37.000          90.000            2.821e+00          -4.794e+00              72.648           1.995e+00             120.770           1.021e+01     
  38.000          90.000            2.821e+00          -4.740e+00              74.486           1.984e+00             122.061           1.025e+01     
  39.000          90.000            2.818e+00          -4.694e+00              76.276           1.970e+00             123.340           1.029e+01     
  40.000          90.000            2.811e+00          -4.658e+00              78.022           1.954e+00             124.605           1.033e+01     
  41.000          90.000            2.802e+00          -4.630e+00              79.728           1.936e+00             125.856           1.038e+01     
  42.000          90.000            2.788e+00          -4.611e+00              81.396           1.916e+00             127.094           1.042e+01     
  43.000          90.000            2.772e+00          -4.601e+00              83.029           1.894e+00             128.316           1.047e+01     
  44.000          90.000            2.753e+00          -4.600e+00              84.630           1.870e+00             129.522           1.052e+01     
  45.000          90.000            2.730e+00          -4.609e+00              86.201           1.844e+00             130.714           1.058e+01     
  46.000          90.000            2.705e+00          -4.626e+00              87.745           1.817e+00             131.889           1.064e+01     
  47.000          90.000            2.677e+00          -4.653e+00              89.264           1.789e+00             133.047           1.071e+01     
  48.000          90.000            2.646e+00          -4.689e+00              90.760           1.759e+00             134.187           1.078e+01     
  49.000          90.000            2.612e+00          -4.733e+00              92.235           1.728e+00             135.310           1.086e+01     
  50.000          90.000            2.577e+00          -4.787e+00              93.693           1.696e+00             136.415           1.094e+01     
  51.000          90.000            2.538e+00          -4.851e+00              95.133           1.664e+00             137.500           1.103e+01     
  52.000          90.000            2.498e+00          -4.923e+00              96.560           1.630e+00             138.566           1.113e+01     
  53.000          90.000            2.455e+00          -5.004e+00              97.974           1.596e+00             139.612           1.124e+01     
  54.000          90.000            2.411e+00          -5.095e+00              99.377           1.562e+00             140.638           1.136e+01     
  55.000          90.000            2.364e+00          -5.195e+00             100.773           1.527e+00             141.642           1.149e+01     
  56.000          90.000            2.316e+00          -5.305e+00             102.162           1.492e+00             142.626           1.162e+01     
  57.000          90.000            2.266e+00          -5.424e+00             103.547           1.456e+00             143.588           1.177e+01     
  58.000          90.000            2.215e+00          -5.552e+00             104.931           1.420e+00             144.528           1.193e+01     
  59.000          90.000            2.162e+00          -5.691e+00             106.315           1.384e+00             145.445           1.211e+01     
  60.000          90.000            2.108e+00          -5.839e+00             107.702           1.349e+00             146.340           1.230e+01     
  61.000          90.000            2.053e+00          -5.996e+00             109.096           1.313e+00             147.212           1.251e+01     
  62.000          90.000            1.997e+00          -6.165e+00             110.498           1.277e+00             148.061           1.273e+01     
  63.000          90.000            1.940e+00          -6.343e+00             111.912           1.242e+00             148.886           1.297e+01     
  64.000          90.000            1.882e+00          -6.532e+00             113.341           1.206e+00             149.688           1.323e+01     
  65.000          90.000            1.824e+00          -6.732e+00             114.790           1.171e+00             150.466           1.351e+01     
  66.000          90.000            1.765e+00          -6.943e+00             116.262           1.137e+00             151.221           1.382e+01     
  67.000          90.000            1.706e+00          -7.165e+00             117.763           1.103e+00             151.951           1.415e+01     
  68.000          90.000            1.647e+00          -7.399e+00             119.298           1.069e+00             152.658           1.452e+01     
  69.000          90.000            1.588e+00          -7.645e+00             120.872           1.036e+00             153.340           1.491e+01     
  70.000          90.000            1.529e+00          -7.903e+00             122.492           1.004e+00             153.999           1.534e+01     
  71.000          90.000            1.471e+00          -8.173e+00             124.167           9.721e-01             154.633           1.582e+01     
  72.000          90.000            1.413e+00          -8.457e+00             125.905           9.410e-01             155.244           1.634e+01     
  73.000          90.000            1.356e+00          -8.754e+00             127.716           9.107e-01             155.830           1.692e+01     
  74.000          90.000            1.300e+00          -9.065e+00             129.612           8.812e-01             156.393           1.756e+01     
  75.000          90.000            1.245e+00          -9.389e+00             131.606           8.525e-01             156.932           1.827e+01     
  76.000          90.000            1.191e+00          -9.727e+00             133.713           8.246e-01             157.448           1.908e+01     
  77.000          90.000            1.139e+00          -1.008e+01             135.950           7.977e-01             157.939           2.000e+01     
  78.000          90.000            1.088e+00          -1.044e+01             138.337           7.717e-01             158.408           2.107e+01     
  79.000          90.000            1.039e+00          -1.082e+01             140.898           7.467e-01             158.853           2.232e+01     
  80.000          90.000            9.924e-01          -1.121e+01             143.657           7.227e-01             159.275           2.383e+01     
  81.000          90.000            9.477e-01          -1.161e+01             146.644           6.997e-01             159.674           2.572e+01     
  82.000          90.000            9.053e-01          -1.201e+01             149.889           6.777e-01             160.050           2.820e+01     
  83.000          90.000            8.655e-01          -1.242e+01             153.426           6.569e-01             160.403           3.180e+01     
  84.000          90.000            8.284e-01          -1.283e+01             157.289           6.371e-01             160.734           3.827e+01     
  85.000          90.000            7.942e-01          -1.322e+01             161.510           6.184e-01             161.042           4.000e+01     
  86.000          90.000            7.630e-01          -1.360e+01             166.113           6.008e-01             161.328           3.609e+01     
  87.000          90.000            7.351e-01          -1.394e+01             171.112           5.844e-01             161.592           3.045e+01     
  88.000          90.000            7.105e-01          -1.423e+01             176.501           5.691e-01             161.834           2.700e+01     
  89.000          90.000            6.894e-01          -1.447e+01             182.250           5.549e-01             162.053           2.450e+01     
  90.000          90.000            6.719e-01          -1.463e+01             188.293           5.419e-01             162.251           2.254e+01     
  91.000          90.000            6.582e-01          -1.471e+01             194.536           5.300e-01             162.427           2.091e+01     
  92.000          90.000            6.483e-01          -1.469e+01             200.859           5.193e-01             162.581           1.953e+01     
  93.000          90.000            6.424e-01          -1.457e+01             207.127           5.097e-01             162.713           1.832e+01     
  94.000          90.000            6.405e-01          -1.437e+01             213.211           5.012e-01             162.823           1.725e+01     
  95.000          90.000            6.427e-01          -1.408e+01             219.003           4.938e-01             162.912           1.629e+01     
  96.000          90.000            6.490e-01          -1.373e+01             224.424           4.875e-01             162.979           1.542e+01     
  97.000          90.000            6.596e-01          -1.332e+01             229.429           4.823e-01             163.024           1.462e+01     
  98.000          90.000            6.742e-01          -1.288e+01             233.999           4.781e-01             163.047           1.389e+01     
  99.000          90.000            6.931e-01          -1.241e+01             238.141           4.750e-01             163.049           1.321e+01     
 100.000          90.000            7.161e-01          -1.192e+01             241.874           4.729e-01             163.028           1.258e+01     
 101.000          90.000            7.432e-01          -1.143e+01             245.229           4.717e-01             162.985           1.200e+01     
 102.000          90.000            7.743e-01          -1.094e+01             248.239           4.716e-01             162.921           1.145e+01     
 103.000          90.000            8.093e-01          -1.046e+01             250.937           4.723e-01             162.833           1.094e+01     
 104.000          90.000            8.482e-01          -9.983e+00             253.355           4.739e-01             162.724           1.046e+01     
 105.000          90.000            8.909e-01          -9.517e+00             255.525           4.764e-01             162.592           1.001e+01     
 106.000          90.000            9.371e-01          -9.064e+00             257.472           4.796e-01             162.437           9.586e+00     
 107.000          90.000            9.867e-01          -8.624e+00             259.222           4.837e-01             162.258           9.190e+00     
 108.000          90.000            1.040e+00          -8.198e+00             260.794           4.884e-01             162.057           8.819e+00     
 109.000          90.000            1.096e+00          -7.786e+00             262.209           4.939e-01             161.833           8.472e+00     
 110.000          90.000            1.154e+00          -7.388e+00             263.481           5.000e-01             161.584           8.148e+00     
 111.000          90.000            1.216e+00          -7.004e+00             264.626           5.067e-01             161.312           7.845e+00     
 112.000          90.000            1.280e+00          -6.634e+00             265.655           5.140e-01             161.016           7.564e+00     
 113.000          90.000            1.346e+00          -6.277e+00             266.579           5.217e-01             160.695           7.303e+00     
 114.000          90.000            1.414e+00          -5.933e+00             267.408           5.299e-01             160.350           7.062e+00     
 115.000          90.000            1.484e+00          -5.602e+00             268.149           5.386e-01             159.980           6.842e+00     
 116.000          90.000            1.555e+00          -5.283e+00             268.810           5.476e-01             159.585           6.641e+00     
 117.000          90.000            1.628e+00          -4.976e+00             269.398           5.569e-01             159.165           6.458e+00     
 118.000          90.000            1.702e+00          -4.681e+00             269.916           5.664e-01             158.720           6.295e+00     
 119.000          90.000            1.776e+00          -4.398e+00             270.372           5.762e-01             158.248           6.150e+00     
 120.000          90.000            1.851e+00          -4.125e+00             270.768           5.861e-01             157.751           6.024e+00     
 121.000          90.000            1.925e+00          -3.864e+00             271.108           5.962e-01             157.228           5.915e+00     
 122.000          90.000            2.000e+00          -3.613e+00             271.396           6.063e-01             156.678           5.824e+00     
 123.000          90.000            2.075e+00          -3.373e+00             271.636           6.164e-01             156.102           5.749e+00     
 124.000          90.000            2.149e+00          -3.142e+00             271.828           6.264e-01             155.499           5.691e+00     
 125.000          90.000            2.222e+00          -2.922e+00             271.976           6.363e-01             154.869           5.648e+00     
 126.000          90.000            2.294e+00          -2.712e+00             272.083           6.461e-01             154.213           5.621e+00     
 127.000          90.000            2.365e+00          -2.511e+00             272.149           6.557e-01             153.530           5.608e+00     
 128.000          90.000            2.434e+00          -2.321e+00             272.176           6.650e-01             152.819           5.608e+00     
 129.000          90.000            2.502e+00          -2.139e+00             272.166           6.741e-01             152.082           5.621e+00     
 130.000          90.000            2.567e+00          -1.967e+00             272.120           6.827e-01             151.317           5.646e+00     
 131.000          90.000            2.630e+00          -1.805e+00             272.039           6.909e-01             150.525           5.682e+00     
 132.000          90.000            2.691e+00          -1.651e+00             271.924           6.986e-01             149.706           5.729e+00     
 133.000          90.000            2.749e+00          -1.507e+00             271.776           7.057e-01             148.861           5.785e+00     
 134.000          90.000            2.804e+00          -1.372e+00             271.596           7.123e-01             147.988           5.849e+00     
 135.000          90.000            2.857e+00          -1.246e+00             271.384           7.182e-01             147.088           5.922e+00     
 136.000          90.000            2.905e+00          -1.129e+00             271.141           7.233e-01             146.161           6.001e+00     
 137.000          90.000            2.951e+00          -1.021e+00             270.867           7.274e-01             145.209           6.087e+00     
 138.000          90.000            2.993e+00          -9.226e-01             270.562           7.308e-01             144.229           6.179e+00     
 139.000          90.000            3.031e+00          -8.330e-01             270.226           7.333e-01             143.223           6.276e+00     
 140.000          90.000            3.065e+00          -7.524e-01             269.861           7.347e-01             142.192           6.378e+00     
 141.000          90.000            3.095e+00          -6.809e-01             269.465           7.350e-01             141.134           6.483e+00     
 142.000          90.000            3.121e+00          -6.185e-01             269.038           7.341e-01             140.051           6.593e+00     
 143.000          90.000            3.142e+00          -5.652e-01             268.581           7.319e-01             138.942           6.705e+00     
 144.000          90.000            3.159e+00          -5.210e-01             268.093           7.283e-01             137.809           6.820e+00     
 145.000          90.000            3.171e+00          -4.860e-01             267.574           7.232e-01             136.650           6.938e+00     
 146.000          90.000            3.178e+00          -4.601e-01             267.023           7.165e-01             135.467           7.057e+00     
 147.000          90.000            3.181e+00          -4.435e-01             266.440           7.081e-01             134.259           7.178e+00     
 148.000          90.000            3.178e+00          -4.360e-01             265.824           6.979e-01             133.027           7.300e+00     
 149.000          90.000            3.171e+00          -4.378e-01             265.174           6.858e-01             131.771           7.423e+00     
 150.000          90.000            3.158e+00          -4.488e-01             264.491           6.716e-01             130.491           7.546e+00     
 151.000          90.000            3.140e+00          -4.690e-01             263.772           6.553e-01             129.188           7.670e+00     
 152.000          90.000            3.116e+00          -4.986e-01             263.018           6.366e-01             127.861           7.793e+00     
 153.000          90.000            3.088e+00          -5.374e-01             262.226           6.156e-01             126.510           7.916e+00     
 154.000          90.000            3.053e+00          -5.854e-01             261.396           5.919e-01             125.136           8.038e+00     
 155.000          90.000            3.014e+00          -6.427e-01             260.526           5.656e-01             123.738           8.160e+00     
 156.000          90.000            2.968e+00          -7.091e-01             259.616           5.364e-01             122.317           8.279e+00     
 157.000          90.000            2.918e+00          -7.847e-01             258.663           5.043e-01             120.871           8.398e+00     
 158.000          90.000            2.861e+00          -8.694e-01             257.667           4.690e-01             119.401           8.514e+00     
 159.000          90.000            2.800e+00          -9.630e-01             256.625           4.305e-01             117.907           8.628e+00     
 160.000          90.000            2.732e+00          -1.066e+00             255.536           3.886e-01             116.388           8.739e+00     
 161.000          90.000            2.660e+00          -1.177e+00             254.398           3.430e-01             114.843           8.847e+00     
 162.000          90.000            2.581e+00          -1.297e+00             253.210           2.939e-01             113.272           8.952e+00     
 163.000          90.000            2.498e+00          -1.425e+00             251.969           2.411e-01             111.674           9.054e+00     
 164.000          90.000            2.409e+00          -1.561e+00             250.673           1.843e-01             110.048           9.151e+00     
 165.000          90.000            2.315e+00          -1.706e+00             249.320           1.235e-01             108.393           9.244e+00     
 166.000          90.000            2.216e+00          -1.858e+00             247.909           5.868e-02             106.709           9.332e+00     
 167.000          90.000            2.112e+00          -2.017e+00             246.437          -1.032e-02             104.993           9.416e+00     
 168.000          90.000            2.003e+00          -2.183e+00             244.903          -8.355e-02             103.245           9.494e+00     
 169.000          90.000            1.889e+00          -2.355e+00             243.304          -1.610e-01             101.462           9.567e+00     
 170.000          90.000            1.771e+00          -2.533e+00             241.638          -2.428e-01              99.644           9.634e+00     
 171.000          90.000            1.650e+00          -2.717e+00             239.905          -3.289e-01              97.788           9.696e+00     
 172.000          90.000            1.524e+00          -2.905e+00             238.103          -4.192e-01              95.893           9.751e+00     
 173.000          90.000            1.394e+00          -3.097e+00             236.230          -5.136e-01              93.957           9.801e+00     
 174.000          90.000            1.262e+00          -3.292e+00             234.287          -6.121e-01              91.976           9.845e+00     
 175.000          90.000            1.126e+00          -3.490e+00             232.272          -7.146e-01              89.950           9.884e+00     
 176.000          90.000            9.880e-01          -3.689e+00             230.187          -8.207e-01              87.875           9.917e+00     
 177.000          90.000            8.479e-01          -3.889e+00             228.033          -9.303e-01              85.750           9.946e+00     
 178.000          90.000            7.061e-01          -4.089e+00             225.810          -1.043e+00              83.571           9.970e+00     
 179.000          90.000            5.633e-01          -4.287e+00             223.522          -1.159e+00              81.337           9.992e+00     
 180.000          90.000            4.200e-01          -4.483e+00             221.171          -1.276e+00              79.044           1.001e+01     
 179.000         270.000            2.767e-01          -4.676e+00              38.763          -1.396e+00             256.691           1.003e+01     
 178.000         270.000            1.341e-01          -4.865e+00              36.301          -1.517e+00             254.275           1.005e+01     
 177.000         270.000           -7.204e-03          -5.050e+00              33.793          -1.639e+00             251.795           1.007e+01     
 176.000         270.000           -1.465e-01          -5.229e+00              31.243          -1.760e+00             249.247           1.010e+01     
 175.000         270.000           -2.830e-01          -5.401e+00              28.661          -1.880e+00             246.632           1.013e+01     
 174.000         270.000           -4.160e-01          -5.567e+00              26.053          -1.999e+00             243.949           1.017e+01     
 173.000         270.000           -5.448e-01          -5.727e+00              23.429          -2.114e+00             241.197           1.022e+01     
 172.000         270.000           -6.687e-01          -5.879e+00              20.796          -2.226e+00             238.377           1.028e+01     
 171.000         270.000           -7.867e-01          -6.024e+00              18.165          -2.332e+00             235.489           1.036e+01     
 170.000         270.000           -8.983e-01          -6.162e+00              15.543          -2.433e+00             232.538           1.046e+01     
 169.000         270.000           -1.003e+00          -6.293e+00              12.940          -2.526e+00             229.525           1.058e+01     
 168.000         270.000           -1.099e+00          -6.419e+00              10.363          -2.610e+00             226.455           1.072e+01     
 167.000         270.000           -1.187e+00          -6.538e+00               7.821          -2.685e+00             223.335           1.089e+01     
 166.000         270.000           -1.266e+00          -6.653e+00               5.319          -2.749e+00             220.169           1.108e+01     
 165.000         270.000           -1.336e+00          -6.765e+00               2.863          -2.802e+00             216.967           1.130e+01     
 164.000         270.000           -1.396e+00          -6.873e+00               0.460          -2.842e+00             213.737           1.155e+01     
 163.000         270.000           -1.445e+00          -6.979e+00             358.113          -2.870e+00             210.488           1.183e+01     
 162.000         270.000           -1.484e+00          -7.084e+00             355.826          -2.884e+00             207.231           1.215e+01     
 161.000         270.000           -1.513e+00          -7.188e+00             353.601          -2.884e+00             203.975           1.249e+01     
 160.000         270.000           -1.532e+00          -7.294e+00             351.439          -2.871e+00             200.733           1.287e+01     
 159.000         270.000           -1.540e+00          -7.401e+00             349.343          -2.844e+00             197.513           1.329e+01     
 158.000         270.000           -1.539e+00          -7.511e+00             347.313          -2.804e+00             194.326           1.373e+01     
 157.000         270.000           -1.528e+00          -7.624e+00             345.348          -2.752e+00             191.182           1.421e+01     
 156.000         270.000           -1.508e+00          -7.742e+00             343.447          -2.688e+00             188.090           1.473e+01     
 155.000         270.000           -1.479e+00          -7.865e+00             341.610          -2.613e+00             185.056           1.527e+01     
 154.000         270.000           -1.442e+00          -7.993e+00             339.836          -2.529e+00             182.089           1.585e+01     
 153.000         270.000           -1.398e+00          -8.128e+00             338.121          -2.435e+00             179.192           1.646e+01     
 152.000         270.000           -1.348e+00          -8.269e+00             336.465          -2.334e+00             176.372           1.710e+01     
 151.000         270.000           -1.291e+00          -8.418e+00             334.866          -2.226e+00             173.631           1.777e+01     
 150.000         270.000           -1.229e+00          -8.574e+00             333.321          -2.113e+00             170.971           1.847e+01     
 149.000         270.000           -1.162e+00          -8.739e+00             331.828          -1.996e+00             168.394           1.921e+01     
 148.000         270.000           -1.091e+00          -8.911e+00             330.385          -1.875e+00             165.900           1.997e+01     
 147.000         270.000           -1.017e+00          -9.093e+00             328.989          -1.752e+00             163.489           2.077e+01     
 146.000         270.000           -9.399e-01          -9.283e+00             327.639          -1.628e+00             161.161           2.159e+01     
 145.000         270.000           -8.608e-01          -9.482e+00             326.333          -1.503e+00             158.913           2.245e+01     
 144.000         270.000           -7.800e-01          -9.689e+00             325.067          -1.378e+00             156.745           2.334e+01     
 143.000         270.000           -6.982e-01          -9.907e+00             323.841          -1.253e+00             154.653           2.427e+01     
 142.000         270.000           -6.158e-01          -1.013e+01             322.652          -1.130e+00             152.637           2.522e+01     
 141.000         270.000           -5.332e-01          -1.037e+01             321.498          -1.009e+00             150.693           2.622e+01     
 140.000         270.000           -4.508e-01          -1.061e+01             320.377          -8.908e-01             148.819           2.725e+01     
 139.000         270.000           -3.690e-01          -1.087e+01             319.289          -7.748e-01             147.011           2.832e+01     
 138.000         270.000           -2.882e-01          -1.113e+01             318.230          -6.618e-01             145.269           2.944e+01     
 137.000         270.000           -2.086e-01          -1.140e+01             317.200          -5.520e-01             143.588           3.060e+01     
 136.000         270.000           -1.304e-01          -1.168e+01             316.197          -4.457e-01             141.967           3.181e+01     
 135.000         270.000           -5.398e-02          -1.196e+01             315.221          -3.431e-01             140.402           3.308e+01     
 134.000         270.000            2.054e-02          -1.226e+01             314.270          -2.442e-01             138.891           3.442e+01     
 133.000         270.000            9.300e-02          -1.256e+01             313.344          -1.492e-01             137.433           3.583e+01     
 132.000         270.000            1.632e-01          -1.287e+01             312.440          -5.813e-02             136.025           3.734e+01     
 131.000         270.000            2.312e-01          -1.319e+01             311.560           2.902e-02             134.664           3.895e+01     
 130.000         270.000            2.967e-01          -1.351e+01             310.701           1.122e-01             133.349           4.000e+01     
 129.000         270.000            3.597e-01          -1.384e+01             309.864           1.915e-01             132.078           4.000e+01     
 128.000         270.000            4.201e-01          -1.418e+01             309.050           2.668e-01             130.849           4.000e+01     
 127.000         270.000            4.780e-01          -1.452e+01             308.257           3.383e-01             129.660           4.000e+01     
 126.000         270.000            5.332e-01          -1.486e+01             307.486           4.060e-01             128.510           4.000e+01     
 125.000         270.000            5.859e-01          -1.521e+01             306.738           4.700e-01             127.398           4.000e+01     
 124.000         270.000            6.359e-01          -1.556e+01             306.014           5.303e-01             126.322           4.000e+01     
 123.000         270.000            6.833e-01          -1.591e+01             305.315           5.871e-01             125.280           4.000e+01     
 122.000         270.000            7.281e-01          -1.626e+01             304.641           6.404e-01             124.273           4.000e+01     
 121.000         270.000            7.704e-01          -1.662e+01             303.996           6.904e-01             123.297           4.000e+01     
 120.000         270.000            8.102e-01          -1.697e+01             303.380           7.371e-01             122.354           4.000e+01     
 119.000         270.000            8.475e-01          -1.732e+01             302.796           7.808e-01             121.440           4.000e+01     
 118.000         270.000            8.824e-01          -1.767e+01             302.247           8.214e-01             120.557           4.000e+01     
 117.000         270.000            9.151e-01          -1.801e+01             301.735           8.591e-01             119.702           4.000e+01     
 116.000         270.000            9.454e-01          -1.835e+01             301.264           8.941e-01             118.876           4.000e+01     
 115.000         270.000            9.736e-01          -1.869e+01             300.837           9.263e-01             118.077           4.000e+01     
 114.000         270.000            9.996e-01          -1.901e+01             300.457           9.561e-01             117.306           4.000e+01     
 113.000         270.000            1.024e+00          -1.933e+01             300.129           9.834e-01             116.560           4.000e+01     
 112.000         270.000            1.046e+00          -1.964e+01             299.856           1.008e+00             115.841           4.000e+01     
 111.000         270.000            1.066e+00          -1.994e+01             299.642           1.031e+00             115.146           4.000e+01     
 110.000         270.000            1.084e+00          -2.023e+01             299.492           1.052e+00             114.477           4.000e+01     
 109.000         270.000            1.101e+00          -2.051e+01             299.408           1.071e+00             113.833           4.000e+01     
 108.000         270.000            1.116e+00          -2.077e+01             299.394           1.088e+00             113.212           4.000e+01     
 107.000         270.000            1.129e+00          -2.102e+01             299.455           1.103e+00             112.616           4.000e+01     
 106.000         270.000            1.141e+00          -2.126e+01             299.593           1.116e+00             112.043           4.000e+01     
 105.000         270.000            1.152e+00          -2.148e+01             299.810           1.128e+00             111.494           3.945e+01     
 104.000         270.000            1.161e+00          -2.169e+01             300.110           1.138e+00             110.968           3.885e+01     
 103.000         270.000            1.169e+00          -2.188e+01             300.493           1.148e+00             110.465           3.825e+01     
 102.000         270.000            1.176e+00          -2.206e+01             300.963           1.155e+00             109.985           3.766e+01     
 101.000         270.000            1.182e+00          -2.222e+01             301.518           1.162e+00             109.527           3.707e+01     
 100.000         270.000            1.186e+00          -2.237e+01             302.162           1.167e+00             109.092           3.648e+01     
  99.000         270.000            1.190e+00          -2.250e+01             302.894           1.171e+00             108.679           3.590e+01     
  98.000         270.000            1.193e+00          -2.262e+01             303.714           1.175e+00             108.289           3.533e+01     
  97.000         270.000            1.195e+00          -2.273e+01             304.623           1.177e+00             107.921           3.477e+01     
  96.000         270.000            1.196e+00          -2.282e+01             305.621           1.178e+00             107.575           3.421e+01     
  95.000         270.000            1.196e+00          -2.290e+01             306.709           1.179e+00             107.251           3.366e+01     
  94.000         270.000            1.196e+00          -2.297e+01             307.888           1.179e+00             106.948           3.312e+01     
  93.000         270.000            1.194e+00          -2.303e+01             309.158           1.178e+00             106.668           3.258e+01     
  92.000         270.000            1.193e+00          -2.308e+01             310.520           1.176e+00             106.410           3.206e+01     
  91.000         270.000            1.190e+00          -2.312e+01             311.978           1.174e+00             106.174           3.154e+01     
  90.000         270.000            1.187e+00          -2.315e+01             313.532           1.171e+00             105.959           3.104e+01     
  89.000         270.000            1.183e+00          -2.318e+01             315.188           1.167e+00             105.767           3.054e+01     
  88.000         270.000            1.179e+00          -2.320e+01             316.948           1.163e+00             105.596           3.006e+01     
  87.000         270.000            1.174e+00          -2.321e+01             318.815           1.158e+00             105.447           2.958e+01     
  86.000         270.000            1.169e+00          -2.321e+01             320.795           1.153e+00             105.320           2.911e+01     
  85.000         270.000            1.163e+00          -2.321e+01             322.893           1.147e+00             105.214           2.865e+01     
  84.000         270.000            1.156e+00          -2.320e+01             325.113           1.140e+00             105.131           2.820e+01     
  83.000         270.000            1.149e+00          -2.318e+01             327.461           1.133e+00             105.069           2.776e+01     
  82.000         270.000            1.141e+00          -2.316e+01             329.942           1.125e+00             105.030           2.732e+01     
  81.000         270.000            1.133e+00          -2.312e+01             332.559           1.117e+00             105.012           2.689e+01     
  80.000         270.000            1.124e+00          -2.308e+01             335.315           1.107e+00             105.017           2.647e+01     
  79.000         270.000            1.114e+00          -2.302e+01             338.211           1.097e+00             105.043           2.606e+01     
  78.000         270.000            1.104e+00          -2.294e+01             341.246           1.087e+00             105.092           2.565e+01     
  77.000         270.000            1.092e+00          -2.285e+01             344.416           1.075e+00             105.163           2.525e+01     
  76.000         270.000            1.080e+00          -2.274e+01             347.715           1.062e+00             105.257           2.486e+01     
  75.000         270.000            1.067e+00          -2.261e+01             351.133           1.049e+00             105.373           2.447e+01     
  74.000         270.000            1.054e+00          -2.245e+01             354.654           1.034e+00             105.512           2.408e+01     
  73.000         270.000            1.039e+00          -2.227e+01             358.262           1.018e+00             105.673           2.370e+01     
  72.000         270.000            1.023e+00          -2.206e+01               1.936           1.001e+00             105.858           2.332e+01     
  71.000         270.000            1.006e+00          -2.182e+01               5.651           9.832e-01             106.067           2.295e+01     
  70.000         270.000            9.879e-01          -2.155e+01               9.383           9.636e-01             106.298           2.258e+01     
  69.000         270.000            9.687e-01          -2.125e+01              13.106           9.425e-01             106.554           2.221e+01     
  68.000         270.000            9.481e-01          -2.093e+01              16.793           9.199e-01             106.834           2.185e+01     
  67.000         270.000            9.263e-01          -2.057e+01              20.421           8.955e-01             107.139           2.148e+01     
  66.000         270.000            9.031e-01          -2.020e+01              23.969           8.692e-01             107.468           2.112e+01     
  65.000         270.000            8.784e-01          -1.980e+01              27.419           8.410e-01             107.823           2.076e+01     
  64.000         270.000            8.521e-01          -1.938e+01              30.757           8.108e-01             108.204           2.041e+01     
  63.000         270.000            8.243e-01          -1.895e+01              33.971           7.783e-01             108.611           2.005e+01     
  62.000         270.000            7.948e-01          -1.850e+01              37.056           7.434e-01             109.046           1.969e+01     
  61.000         270.000            7.636e-01          -1.805e+01              40.007           7.061e-01             109.508           1.934e+01     
  60.000         270.000            7.306e-01          -1.759e+01              42.824           6.661e-01             109.999           1.898e+01     
  59.000         270.000            6.957e-01          -1.712e+01              45.508           6.233e-01             110.519           1.862e+01     
  58.000         270.000            6.590e-01          -1.665e+01              48.063           5.776e-01             111.069           1.827e+01     
  57.000         270.000            6.203e-01          -1.618e+01              50.495           5.287e-01             111.650           1.791e+01     
  56.000         270.000            5.797e-01          -1.572e+01              52.809           4.766e-01             112.264           1.755e+01     
  55.000         270.000            5.369e-01          -1.526e+01              55.011           4.211e-01             112.911           1.719e+01     
  54.000         270.000            4.922e-01          -1.480e+01              57.108           3.619e-01             113.592           1.683e+01     
  53.000         270.000            4.453e-01          -1.435e+01              59.109           2.991e-01             114.310           1.646e+01     
  52.000         270.000            3.964e-01          -1.391e+01              61.019           2.323e-01             115.065           1.610e+01     
  51.000         270.000            3.453e-01          -1.348e+01              62.846           1.614e-01             115.859           1.573e+01     
  50.000         270.000            2.921e-01          -1.305e+01              64.597           8.637e-02             116.695           1.536e+01     
  49.000         270.000            2.369e-01          -1.264e+01              66.278           6.973e-03             117.572           1.499e+01     
  48.000         270.000            1.796e-01          -1.223e+01              67.895          -7.691e-02             118.495           1.462e+01     
  47.000         270.000            1.203e-01          -1.184e+01              69.454          -1.654e-01             119.465           1.424e+01     
  46.000         270.000            5.904e-02          -1.146e+01              70.960          -2.586e-01             120.485           1.386e+01     
  45.000         270.000           -4.062e-03          -1.109e+01              72.419          -3.566e-01             121.557           1.348e+01     
  44.000         270.000           -6.892e-02          -1.072e+01              73.836          -4.594e-01             122.683           1.309e+01     
  43.000         270.000           -1.355e-01          -1.037e+01              75.213          -5.672e-01             123.867           1.271e+01     
  42.000         270.000           -2.035e-01          -1.004e+01              76.558          -6.800e-01             125.114           1.232e+01     
  41.000         270.000           -2.728e-01          -9.710e+00              77.873          -7.976e-01             126.424           1.193e+01     
  40.000         270.000           -3.432e-01          -9.396e+00              79.162          -9.200e-01             127.804           1.153e+01     
  39.000         270.000           -4.145e-01          -9.093e+00              80.430          -1.047e+00             129.255           1.113e+01     
  38.000         270.000           -4.864e-01          -8.802e+00              81.678          -1.179e+00             130.784           1.073e+01     
  37.000         270.000           -5.587e-01          -8.523e+00              82.910          -1.315e+00             132.393           1.033e+01     
  36.000         270.000           -6.310e-01          -8.256e+00              84.130          -1.455e+00             134.088           9.928e+00     
  35.000         270.000           -7.029e-01          -8.000e+00              85.340          -1.598e+00             135.874           9.521e+00     
  34.000         270.000           -7.741e-01          -7.757e+00              86.543          -1.745e+00             137.754           9.113e+00     
  33.000         270.000           -8.441e-01          -7.526e+00              87.741          -1.894e+00             139.735           8.703e+00     
  32.000         270.000           -9.125e-01          -7.307e+00              88.938          -2.044e+00             141.820           8.292e+00     
  31.000         270.000           -9.788e-01          -7.099e+00              90.136          -2.195e+00             144.015           7.881e+00     
  30.000         270.000           -1.042e+00          -6.904e+00              91.337          -2.346e+00             146.323           7.468e+00     
  29.000         270.000           -1.103e+00          -6.721e+00              92.543          -2.495e+00             148.749           7.057e+00     
  28.000         270.000           -1.160e+00          -6.550e+00              93.758          -2.641e+00             151.296           6.646e+00     
  27.000         270.000           -1.212e+00          -6.391e+00              94.984          -2.783e+00             153.965           6.236e+00     
  26.000         270.000           -1.259e+00          -6.244e+00              96.222          -2.918e+00             156.757           5.830e+00     
  25.000         270.000           -1.301e+00          -6.109e+00              97.476          -3.044e+00             159.673           5.427e+00     
  24.000         270.000           -1.337e+00          -5.986e+00              98.748          -3.161e+00             162.708           5.029e+00     
  23.000         270.000           -1.366e+00          -5.874e+00             100.040          -3.265e+00             165.859           4.639e+00     
  22.000         270.000           -1.388e+00          -5.775e+00             101.356          -3.355e+00             169.118           4.258e+00     
  21.000         270.000           -1.403e+00          -5.688e+00             102.697          -3.429e+00             172.476           3.889e+00     
  20.000         270.000           -1.409e+00          -5.613e+00             104.066          -3.484e+00             175.921           3.538e+00     
  19.000         270.000           -1.407e+00          -5.550e+00             105.465          -3.520e+00             179.437           3.208e+00     
  18.000         270.000           -1.397e+00          -5.499e+00             106.900          -3.536e+00             183.011           2.907e+00     
  17.000         270.000           -1.377e+00          -5.459e+00             108.372          -3.529e+00             186.624           2.645e+00     
  16.000         270.000           -1.349e+00          -5.431e+00             109.884          -3.500e+00             190.256           2.432e+00     
  15.000         270.000           -1.312e+00          -5.415e+00             111.440          -3.449e+00             193.889           2.281e+00     
  14.000         270.000           -1.265e+00          -5.410e+00             113.043          -3.377e+00             197.504           2.202e+00     
  13.000         270.000           -1.210e+00          -5.416e+00             114.697          -3.284e+00             201.083           2.202e+00     
  12.000         270.000           -1.147e+00          -5.433e+00             116.405          -3.173e+00             204.611           2.277e+00     
  11.000         270.000           -1.076e+00          -5.461e+00             118.172          -3.043e+00             208.072           2.418e+00     
  10.000         270.000           -9.965e-01          -5.499e+00             120.002          -2.898e+00             211.456           2.610e+00     
   9.000         270.000           -9.103e-01          -5.547e+00             121.898          -2.740e+00             214.753           2.842e+00     
   8.000         270.000           -8.175e-01          -5.605e+00             123.866          -2.570e+00             217.956           3.100e+00     
   7.000         270.000           -7.187e-01          -5.672e+00             125.910          -2.391e+00             221.061           3.377e+00     
   6.000         270.000           -6.145e-01          -5.748e+00             128.034          -2.205e+00             224.065           3.665e+00     
   5.000         270.000           -5.056e-01          -5.831e+00             130.243          -2.014e+00             226.968           3.959e+00     
   4.000         270.000           -3.926e-01          -5.921e+00             132.541          -1.819e+00             229.770           4.256e+00     
   3.000         270.000           -2.762e-01          -6.016e+00             134.933          -1.623e+00             232.474           4.552e+00     
   2.000         270.000           -1.571e-01          -6.117e+00             137.422          -1.427e+00             235.083           4.846e+00     
   1.000         270.000           -3.573e-02          -6.221e+00             140.011          -1.231e+00             237.600           5.136e+00     
