Theta [deg.]  Phi   [deg.]  Abs(Grlz)[dBi   ]   Abs(Theta)[dBi   ]  Phase(Theta)[deg.]  Abs(Phi  )[dBi   ]  Phase(Phi  )[deg.]  Ax.Ratio[dB    ]    
------------------------------------------------------------------------------------------------------------------------------------------------------
  90.000           0.000           -2.032e+00          -1.598e+01             316.860          -2.210e+00             225.223           1.377e+01     
  90.000           1.000           -1.820e+00          -1.620e+01             315.019          -1.981e+00             226.343           1.422e+01     
  90.000           2.000           -1.614e+00          -1.643e+01             313.121          -1.759e+00             227.352           1.470e+01     
  90.000           3.000           -1.413e+00          -1.668e+01             311.159          -1.545e+00             228.260           1.520e+01     
  90.000           4.000           -1.220e+00          -1.693e+01             309.127          -1.338e+00             229.073           1.573e+01     
  90.000           5.000           -1.034e+00          -1.719e+01             307.019          -1.140e+00             229.800           1.628e+01     
  90.000           6.000           -8.552e-01          -1.747e+01             304.826          -9.510e-01             230.448           1.686e+01     
  90.000           7.000           -6.846e-01          -1.776e+01             302.539          -7.707e-01             231.023           1.746e+01     
  90.000           8.000           -5.222e-01          -1.805e+01             300.148          -5.996e-01             231.532           1.810e+01     
  90.000           9.000           -3.682e-01          -1.836e+01             297.643          -4.377e-01             231.979           1.876e+01     
  90.000          10.000           -2.227e-01          -1.868e+01             295.009          -2.851e-01             232.370           1.946e+01     
  90.000          11.000           -8.583e-02          -1.902e+01             292.232          -1.418e-01             232.710           2.019e+01     
  90.000          12.000            4.242e-02          -1.936e+01             289.295          -7.746e-03             233.002           2.098e+01     
  90.000          13.000            1.620e-01          -1.971e+01             286.180           1.170e-01             233.252           2.182e+01     
  90.000          14.000            2.729e-01          -2.006e+01             282.868           2.326e-01             233.463           2.272e+01     
  90.000          15.000            3.752e-01          -2.043e+01             279.335           3.390e-01             233.637           2.371e+01     
  90.000          16.000            4.689e-01          -2.079e+01             275.558           4.363e-01             233.778           2.479e+01     
  90.000          17.000            5.539e-01          -2.116e+01             271.515           5.245e-01             233.890           2.601e+01     
  90.000          18.000            6.305e-01          -2.152e+01             267.183           6.039e-01             233.974           2.739e+01     
  90.000          19.000            6.985e-01          -2.186e+01             262.542           6.743e-01             234.033           2.900e+01     
  90.000          20.000            7.581e-01          -2.219e+01             257.579           7.360e-01             234.069           3.094e+01     
  90.000          21.000            8.093e-01          -2.248e+01             252.290           7.889e-01             234.084           3.341e+01     
  90.000          22.000            8.522e-01          -2.274e+01             246.687           8.331e-01             234.081           3.683e+01     
  90.000          23.000            8.868e-01          -2.295e+01             240.797           8.688e-01             234.061           4.000e+01     
  90.000          24.000            9.132e-01          -2.309e+01             234.669           8.959e-01             234.025           4.000e+01     
  90.000          25.000            9.314e-01          -2.317e+01             228.373           9.145e-01             233.975           4.000e+01     
  90.000          26.000            9.415e-01          -2.317e+01             221.993           9.246e-01             233.913           3.783e+01     
  90.000          27.000            9.436e-01          -2.310e+01             215.625           9.264e-01             233.839           3.416e+01     
  90.000          28.000            9.376e-01          -2.295e+01             209.364           9.198e-01             233.755           3.158e+01     
  90.000          29.000            9.236e-01          -2.274e+01             203.295           9.049e-01             233.663           2.960e+01     
  90.000          30.000            9.018e-01          -2.246e+01             197.485           8.817e-01             233.562           2.797e+01     
  90.000          31.000            8.720e-01          -2.214e+01             191.982           8.503e-01             233.454           2.659e+01     
  90.000          32.000            8.345e-01          -2.178e+01             186.814           8.106e-01             233.340           2.540e+01     
  90.000          33.000            7.891e-01          -2.139e+01             181.990           7.627e-01             233.220           2.433e+01     
  90.000          34.000            7.360e-01          -2.098e+01             177.506           7.066e-01             233.097           2.337e+01     
  90.000          35.000            6.752e-01          -2.055e+01             173.347           6.423e-01             232.969           2.249e+01     
  90.000          36.000            6.067e-01          -2.012e+01             169.494           5.698e-01             232.838           2.168e+01     
  90.000          37.000            5.305e-01          -1.969e+01             165.925           4.891e-01             232.704           2.093e+01     
  90.000          38.000            4.468e-01          -1.927e+01             162.616           4.002e-01             232.568           2.022e+01     
  90.000          39.000            3.556e-01          -1.885e+01             159.543           3.031e-01             232.430           1.955e+01     
  90.000          40.000            2.568e-01          -1.843e+01             156.685           1.977e-01             232.291           1.892e+01     
  90.000          41.000            1.506e-01          -1.803e+01             154.022           8.402e-02             232.151           1.831e+01     
  90.000          42.000            3.689e-02          -1.764e+01             151.534          -3.795e-02             232.011           1.772e+01     
  90.000          43.000           -8.415e-02          -1.725e+01             149.206          -1.683e-01             231.871           1.716e+01     
  90.000          44.000           -2.125e-01          -1.688e+01             147.022          -3.070e-01             231.731           1.662e+01     
  90.000          45.000           -3.481e-01          -1.652e+01             144.969          -4.542e-01             231.591           1.609e+01     
  90.000          46.000           -4.910e-01          -1.618e+01             143.037          -6.099e-01             231.453           1.557e+01     
  90.000          47.000           -6.410e-01          -1.584e+01             141.214          -7.742e-01             231.315           1.507e+01     
  90.000          48.000           -7.981e-01          -1.551e+01             139.492          -9.472e-01             231.179           1.457e+01     
  90.000          49.000           -9.622e-01          -1.520e+01             137.862          -1.129e+00             231.045           1.409e+01     
  90.000          50.000           -1.133e+00          -1.490e+01             136.318          -1.320e+00             230.912           1.361e+01     
  90.000          51.000           -1.311e+00          -1.461e+01             134.854          -1.519e+00             230.781           1.314e+01     
  90.000          52.000           -1.496e+00          -1.432e+01             133.463          -1.728e+00             230.652           1.267e+01     
  90.000          53.000           -1.687e+00          -1.405e+01             132.142          -1.946e+00             230.525           1.221e+01     
  90.000          54.000           -1.885e+00          -1.379e+01             130.885          -2.174e+00             230.401           1.175e+01     
  90.000          55.000           -2.089e+00          -1.354e+01             129.688          -2.412e+00             230.279           1.130e+01     
  90.000          56.000           -2.299e+00          -1.329e+01             128.549          -2.659e+00             230.160           1.085e+01     
  90.000          57.000           -2.515e+00          -1.306e+01             127.464          -2.916e+00             230.044           1.040e+01     
  90.000          58.000           -2.738e+00          -1.284e+01             126.431          -3.185e+00             229.930           9.952e+00     
  90.000          59.000           -2.966e+00          -1.262e+01             125.446          -3.463e+00             229.820           9.507e+00     
  90.000          60.000           -3.199e+00          -1.241e+01             124.507          -3.754e+00             229.712           9.062e+00     
  90.000          61.000           -3.438e+00          -1.221e+01             123.613          -4.055e+00             229.607           8.618e+00     
  90.000          62.000           -3.681e+00          -1.202e+01             122.761          -4.369e+00             229.506           8.176e+00     
  90.000          63.000           -3.930e+00          -1.184e+01             121.951          -4.696e+00             229.408           7.735e+00     
  90.000          64.000           -4.182e+00          -1.167e+01             121.179          -5.036e+00             229.313           7.296e+00     
  90.000          65.000           -4.438e+00          -1.150e+01             120.446          -5.390e+00             229.222           6.859e+00     
  90.000          66.000           -4.698e+00          -1.134e+01             119.749          -5.759e+00             229.134           6.427e+00     
  90.000          67.000           -4.961e+00          -1.119e+01             119.087          -6.144e+00             229.049           6.001e+00     
  90.000          68.000           -5.226e+00          -1.104e+01             118.460          -6.546e+00             228.969           5.585e+00     
  90.000          69.000           -5.493e+00          -1.090e+01             117.867          -6.966e+00             228.892           5.182e+00     
  90.000          70.000           -5.761e+00          -1.077e+01             117.305          -7.406e+00             228.819           4.801e+00     
  90.000          71.000           -6.029e+00          -1.065e+01             116.776          -7.868e+00             228.750           4.449e+00     
  90.000          72.000           -6.297e+00          -1.053e+01             116.277          -8.354e+00             228.685           4.142e+00     
  90.000          73.000           -6.564e+00          -1.042e+01             115.809          -8.865e+00             228.624           3.897e+00     
  90.000          74.000           -6.828e+00          -1.032e+01             115.370          -9.406e+00             228.568           3.737e+00     
  90.000          75.000           -7.089e+00          -1.022e+01             114.961          -9.980e+00             228.516           3.684e+00     
  90.000          76.000           -7.345e+00          -1.013e+01             114.580          -1.059e+01             228.469           3.761e+00     
  90.000          77.000           -7.595e+00          -1.005e+01             114.226          -1.124e+01             228.427           3.979e+00     
  90.000          78.000           -7.837e+00          -9.970e+00             113.901          -1.195e+01             228.390           4.340e+00     
  90.000          79.000           -8.070e+00          -9.899e+00             113.602          -1.271e+01             228.359           4.839e+00     
  90.000          80.000           -8.292e+00          -9.835e+00             113.331          -1.354e+01             228.334           5.473e+00     
  90.000          81.000           -8.502e+00          -9.776e+00             113.086          -1.445e+01             228.317           6.239e+00     
  90.000          82.000           -8.697e+00          -9.724e+00             112.867          -1.546e+01             228.307           7.145e+00     
  90.000          83.000           -8.876e+00          -9.678e+00             112.674          -1.660e+01             228.308           8.209e+00     
  90.000          84.000           -9.036e+00          -9.638e+00             112.507          -1.791e+01             228.323           9.461e+00     
  90.000          85.000           -9.177e+00          -9.605e+00             112.366          -1.945e+01             228.356           1.096e+01     
  90.000          86.000           -9.296e+00          -9.577e+00             112.249          -2.131e+01             228.418           1.280e+01     
  90.000          87.000           -9.391e+00          -9.556e+00             112.159          -2.368e+01             228.533           1.515e+01     
  90.000          88.000           -9.463e+00          -9.541e+00             112.093          -2.695e+01             228.766           1.842e+01     
  90.000          89.000           -9.508e+00          -9.532e+00             112.053          -3.223e+01             229.407           2.374e+01     
  90.000          90.000           -9.528e+00          -9.529e+00             112.037          -4.786e+01             236.553           4.000e+01     
  90.000          91.000           -9.521e+00          -9.532e+00             112.047          -3.566e+01              45.906           2.691e+01     
  90.000          92.000           -9.488e+00          -9.541e+00             112.081          -2.864e+01              47.075           1.998e+01     
  90.000          93.000           -9.428e+00          -9.556e+00             112.141          -2.481e+01              47.421           1.618e+01     
  90.000          94.000           -9.344e+00          -9.578e+00             112.226          -2.215e+01              47.596           1.355e+01     
  90.000          95.000           -9.235e+00          -9.605e+00             112.336          -2.012e+01              47.709           1.154e+01     
  90.000          96.000           -9.104e+00          -9.639e+00             112.472          -1.846e+01              47.794           9.930e+00     
  90.000          97.000           -8.951e+00          -9.678e+00             112.633          -1.707e+01              47.866           8.590e+00     
  90.000          98.000           -8.779e+00          -9.724e+00             112.820          -1.586e+01              47.931           7.457e+00     
  90.000          99.000           -8.589e+00          -9.777e+00             113.033          -1.480e+01              47.992           6.492e+00     
  90.000         100.000           -8.383e+00          -9.835e+00             113.273          -1.385e+01              48.052           5.673e+00     
  90.000         101.000           -8.164e+00          -9.900e+00             113.539          -1.298e+01              48.112           4.990e+00     
  90.000         102.000           -7.932e+00          -9.971e+00             113.831          -1.220e+01              48.173           4.444e+00     
  90.000         103.000           -7.690e+00          -1.005e+01             114.151          -1.147e+01              48.235           4.038e+00     
  90.000         104.000           -7.440e+00          -1.013e+01             114.498          -1.079e+01              48.300           3.778e+00     
  90.000         105.000           -7.183e+00          -1.022e+01             114.874          -1.016e+01              48.366           3.666e+00     
  90.000         106.000           -6.920e+00          -1.032e+01             115.278          -9.573e+00              48.436           3.691e+00     
  90.000         107.000           -6.653e+00          -1.042e+01             115.711          -9.016e+00              48.507           3.834e+00     
  90.000         108.000           -6.383e+00          -1.053e+01             116.174          -8.491e+00              48.582           4.069e+00     
  90.000         109.000           -6.112e+00          -1.065e+01             116.667          -7.993e+00              48.659           4.373e+00     
  90.000         110.000           -5.839e+00          -1.078e+01             117.191          -7.519e+00              48.739           4.724e+00     
  90.000         111.000           -5.567e+00          -1.091e+01             117.747          -7.069e+00              48.821           5.109e+00     
  90.000         112.000           -5.295e+00          -1.105e+01             118.335          -6.639e+00              48.906           5.517e+00     
  90.000         113.000           -5.025e+00          -1.119e+01             118.957          -6.227e+00              48.994           5.940e+00     
  90.000         114.000           -4.758e+00          -1.134e+01             119.614          -5.834e+00              49.085           6.372e+00     
  90.000         115.000           -4.493e+00          -1.150e+01             120.306          -5.457e+00              49.178           6.811e+00     
  90.000         116.000           -4.232e+00          -1.167e+01             121.034          -5.095e+00              49.274           7.254e+00     
  90.000         117.000           -3.974e+00          -1.185e+01             121.801          -4.748e+00              49.373           7.700e+00     
  90.000         118.000           -3.721e+00          -1.203e+01             122.608          -4.414e+00              49.474           8.148e+00     
  90.000         119.000           -3.473e+00          -1.222e+01             123.455          -4.094e+00              49.578           8.597e+00     
  90.000         120.000           -3.229e+00          -1.242e+01             124.345          -3.786e+00              49.684           9.047e+00     
  90.000         121.000           -2.991e+00          -1.263e+01             125.280          -3.490e+00              49.793           9.498e+00     
  90.000         122.000           -2.758e+00          -1.285e+01             126.262          -3.205e+00              49.904           9.950e+00     
  90.000         123.000           -2.531e+00          -1.307e+01             127.293          -2.932e+00              50.017           1.040e+01     
  90.000         124.000           -2.310e+00          -1.331e+01             128.375          -2.669e+00              50.132           1.086e+01     
  90.000         125.000           -2.095e+00          -1.355e+01             129.512          -2.417e+00              50.250           1.131e+01     
  90.000         126.000           -1.886e+00          -1.381e+01             130.707          -2.175e+00              50.369           1.177e+01     
  90.000         127.000           -1.684e+00          -1.407e+01             131.963          -1.942e+00              50.490           1.224e+01     
  90.000         128.000           -1.489e+00          -1.434e+01             133.284          -1.720e+00              50.613           1.270e+01     
  90.000         129.000           -1.300e+00          -1.463e+01             134.675          -1.507e+00              50.738           1.317e+01     
  90.000         130.000           -1.118e+00          -1.492e+01             136.141          -1.303e+00              50.864           1.365e+01     
  90.000         131.000           -9.428e-01          -1.523e+01             137.687          -1.108e+00              50.992           1.413e+01     
  90.000         132.000           -7.749e-01          -1.554e+01             139.319          -9.223e-01              51.120           1.462e+01     
  90.000         133.000           -6.140e-01          -1.587e+01             141.045          -7.455e-01              51.250           1.512e+01     
  90.000         134.000           -4.603e-01          -1.621e+01             142.873          -5.775e-01              51.380           1.563e+01     
  90.000         135.000           -3.138e-01          -1.656e+01             144.812          -4.182e-01              51.511           1.615e+01     
  90.000         136.000           -1.746e-01          -1.692e+01             146.872          -2.676e-01              51.642           1.669e+01     
  90.000         137.000           -4.283e-02          -1.729e+01             149.065          -1.255e-01              51.773           1.724e+01     
  90.000         138.000            8.156e-02          -1.767e+01             151.405           8.137e-03              51.904           1.781e+01     
  90.000         139.000            1.985e-01          -1.807e+01             153.906           1.333e-01              52.034           1.840e+01     
  90.000         140.000            3.079e-01          -1.847e+01             156.585           2.501e-01              52.163           1.901e+01     
  90.000         141.000            4.098e-01          -1.889e+01             159.460           3.585e-01              52.291           1.965e+01     
  90.000         142.000            5.041e-01          -1.931e+01             162.553           4.586e-01              52.417           2.033e+01     
  90.000         143.000            5.908e-01          -1.974e+01             165.884           5.504e-01              52.541           2.104e+01     
  90.000         144.000            6.698e-01          -2.017e+01             169.478           6.339e-01              52.661           2.181e+01     
  90.000         145.000            7.412e-01          -2.060e+01             173.358           7.091e-01              52.779           2.263e+01     
  90.000         146.000            8.047e-01          -2.102e+01             177.546           7.761e-01              52.893           2.351e+01     
  90.000         147.000            8.606e-01          -2.143e+01             182.060           8.349e-01              53.002           2.448e+01     
  90.000         148.000            9.086e-01          -2.182e+01             186.916           8.853e-01              53.106           2.556e+01     
  90.000         149.000            9.487e-01          -2.218e+01             192.114           9.275e-01              53.203           2.678e+01     
  90.000         150.000            9.810e-01          -2.250e+01             197.644           9.615e-01              53.295           2.818e+01     
  90.000         151.000            1.005e+00          -2.277e+01             203.476           9.871e-01              53.379           2.983e+01     
  90.000         152.000            1.022e+00          -2.298e+01             209.562           1.004e+00              53.454           3.186e+01     
  90.000         153.000            1.030e+00          -2.312e+01             215.830           1.013e+00              53.519           3.451e+01     
  90.000         154.000            1.030e+00          -2.319e+01             222.197           1.014e+00              53.574           3.833e+01     
  90.000         155.000            1.022e+00          -2.318e+01             228.566           1.006e+00              53.616           4.000e+01     
  90.000         156.000            1.006e+00          -2.309e+01             234.844           9.895e-01              53.646           4.000e+01     
  90.000         157.000            9.823e-01          -2.294e+01             240.947           9.646e-01              53.661           4.000e+01     
  90.000         158.000            9.498e-01          -2.273e+01             246.807           9.312e-01              53.660           3.656e+01     
  90.000         159.000            9.091e-01          -2.247e+01             252.380           8.891e-01              53.642           3.326e+01     
  90.000         160.000            8.600e-01          -2.218e+01             257.637           8.384e-01              53.604           3.085e+01     
  90.000         161.000            8.025e-01          -2.185e+01             262.571           7.789e-01              53.544           2.895e+01     
  90.000         162.000            7.366e-01          -2.151e+01             267.185           7.106e-01              53.462           2.737e+01     
  90.000         163.000            6.622e-01          -2.115e+01             271.493           6.335e-01              53.354           2.601e+01     
  90.000         164.000            5.792e-01          -2.079e+01             275.516           5.474e-01              53.217           2.481e+01     
  90.000         165.000            4.877e-01          -2.042e+01             279.275           4.524e-01              53.051           2.374e+01     
  90.000         166.000            3.876e-01          -2.006e+01             282.794           3.483e-01              52.851           2.277e+01     
  90.000         167.000            2.789e-01          -1.971e+01             286.096           2.351e-01              52.614           2.187e+01     
  90.000         168.000            1.615e-01          -1.936e+01             289.203           1.128e-01              52.338           2.104e+01     
  90.000         169.000            3.560e-02          -1.902e+01             292.134          -1.870e-02              52.018           2.027e+01     
  90.000         170.000           -9.891e-02          -1.869e+01             294.907          -1.594e-01              51.651           1.954e+01     
  90.000         171.000           -2.419e-01          -1.837e+01             297.540          -3.092e-01              51.232           1.885e+01     
  90.000         172.000           -3.933e-01          -1.807e+01             300.046          -4.682e-01              50.757           1.820e+01     
  90.000         173.000           -5.530e-01          -1.777e+01             302.438          -6.362e-01              50.221           1.758e+01     
  90.000         174.000           -7.208e-01          -1.749e+01             304.728          -8.132e-01              49.618           1.698e+01     
  90.000         175.000           -8.963e-01          -1.721e+01             306.925          -9.989e-01              48.943           1.642e+01     
  90.000         176.000           -1.079e+00          -1.695e+01             309.039          -1.193e+00              48.188           1.587e+01     
  90.000         177.000           -1.269e+00          -1.670e+01             311.076          -1.396e+00              47.348           1.536e+01     
  90.000         178.000           -1.466e+00          -1.646e+01             313.045          -1.606e+00              46.415           1.487e+01     
  90.000         179.000           -1.668e+00          -1.622e+01             314.951          -1.823e+00              45.381           1.440e+01     
  90.000         180.000           -1.876e+00          -1.600e+01             316.799          -2.047e+00              44.238           1.397e+01     
  90.000         181.000           -2.087e+00          -1.579e+01             318.594          -2.277e+00              42.977           1.356e+01     
  90.000         182.000           -2.302e+00          -1.559e+01             320.340          -2.510e+00              41.591           1.319e+01     
  90.000         183.000           -2.518e+00          -1.540e+01             322.041          -2.747e+00              40.070           1.286e+01     
  90.000         184.000           -2.733e+00          -1.521e+01             323.701          -2.986e+00              38.405           1.258e+01     
  90.000         185.000           -2.947e+00          -1.504e+01             325.322          -3.224e+00              36.590           1.235e+01     
  90.000         186.000           -3.156e+00          -1.487e+01             326.907          -3.459e+00              34.616           1.218e+01     
  90.000         187.000           -3.358e+00          -1.471e+01             328.458          -3.689e+00              32.479           1.209e+01     
  90.000         188.000           -3.551e+00          -1.456e+01             329.978          -3.910e+00              30.176           1.208e+01     
  90.000         189.000           -3.732e+00          -1.442e+01             331.468          -4.120e+00              27.705           1.217e+01     
  90.000         190.000           -3.897e+00          -1.428e+01             332.931          -4.314e+00              25.071           1.237e+01     
  90.000         191.000           -4.044e+00          -1.416e+01             334.367          -4.490e+00              22.281           1.269e+01     
  90.000         192.000           -4.170e+00          -1.404e+01             335.779          -4.643e+00              19.348           1.316e+01     
  90.000         193.000           -4.272e+00          -1.392e+01             337.168          -4.770e+00              16.289           1.379e+01     
  90.000         194.000           -4.347e+00          -1.382e+01             338.534          -4.867e+00              13.127           1.461e+01     
  90.000         195.000           -4.394e+00          -1.372e+01             339.879          -4.934e+00               9.890           1.565e+01     
  90.000         196.000           -4.413e+00          -1.363e+01             341.205          -4.967e+00               6.607           1.695e+01     
  90.000         197.000           -4.402e+00          -1.354e+01             342.511          -4.967e+00               3.313           1.858e+01     
  90.000         198.000           -4.363e+00          -1.346e+01             343.799          -4.933e+00               0.040           2.066e+01     
  90.000         199.000           -4.296e+00          -1.339e+01             345.070          -4.867e+00             356.821           2.345e+01     
  90.000         200.000           -4.203e+00          -1.332e+01             346.324          -4.771e+00             353.684           2.752e+01     
  90.000         201.000           -4.088e+00          -1.326e+01             347.562          -4.648e+00             350.655           3.509e+01     
  90.000         202.000           -3.952e+00          -1.321e+01             348.785          -4.501e+00             347.753           4.000e+01     
  90.000         203.000           -3.799e+00          -1.316e+01             349.993          -4.334e+00             344.993           3.108e+01     
  90.000         204.000           -3.632e+00          -1.311e+01             351.186          -4.151e+00             342.385           2.629e+01     
  90.000         205.000           -3.454e+00          -1.308e+01             352.366          -3.956e+00             339.934           2.342e+01     
  90.000         206.000           -3.268e+00          -1.304e+01             353.533          -3.751e+00             337.642           2.145e+01     
  90.000         207.000           -3.076e+00          -1.302e+01             354.687          -3.541e+00             335.507           1.999e+01     
  90.000         208.000           -2.882e+00          -1.300e+01             355.828          -3.327e+00             333.524           1.886e+01     
  90.000         209.000           -2.687e+00          -1.298e+01             356.957          -3.113e+00             331.687           1.797e+01     
  90.000         210.000           -2.493e+00          -1.297e+01             358.075          -2.901e+00             329.990           1.726e+01     
  90.000         211.000           -2.302e+00          -1.296e+01             359.181          -2.692e+00             328.423           1.669e+01     
  90.000         212.000           -2.116e+00          -1.296e+01               0.276          -2.489e+00             326.979           1.622e+01     
  90.000         213.000           -1.935e+00          -1.296e+01               1.361          -2.292e+00             325.649           1.584e+01     
  90.000         214.000           -1.761e+00          -1.297e+01               2.434          -2.103e+00             324.426           1.553e+01     
  90.000         215.000           -1.594e+00          -1.299e+01               3.498          -1.922e+00             323.300           1.527e+01     
  90.000         216.000           -1.436e+00          -1.300e+01               4.551          -1.750e+00             322.264           1.506e+01     
  90.000         217.000           -1.287e+00          -1.303e+01               5.594          -1.588e+00             321.311           1.488e+01     
  90.000         218.000           -1.146e+00          -1.305e+01               6.628          -1.436e+00             320.434           1.474e+01     
  90.000         219.000           -1.016e+00          -1.308e+01               7.652          -1.295e+00             319.628           1.463e+01     
  90.000         220.000           -8.958e-01          -1.312e+01               8.666          -1.164e+00             318.886           1.453e+01     
  90.000         221.000           -7.859e-01          -1.316e+01               9.671          -1.045e+00             318.202           1.446e+01     
  90.000         222.000           -6.868e-01          -1.320e+01              10.667          -9.375e-01             317.573           1.439e+01     
  90.000         223.000           -5.986e-01          -1.324e+01              11.654          -8.414e-01             316.993           1.434e+01     
  90.000         224.000           -5.214e-01          -1.329e+01              12.632          -7.570e-01             316.459           1.430e+01     
  90.000         225.000           -4.555e-01          -1.335e+01              13.600          -6.845e-01             315.967           1.427e+01     
  90.000         226.000           -4.010e-01          -1.340e+01              14.560          -6.241e-01             315.512           1.424e+01     
  90.000         227.000           -3.580e-01          -1.346e+01              15.510          -5.758e-01             315.093           1.421e+01     
  90.000         228.000           -3.268e-01          -1.353e+01              16.452          -5.398e-01             314.706           1.419e+01     
  90.000         229.000           -3.074e-01          -1.359e+01              17.384          -5.161e-01             314.348           1.417e+01     
  90.000         230.000           -3.001e-01          -1.366e+01              18.307          -5.051e-01             314.018           1.414e+01     
  90.000         231.000           -3.049e-01          -1.373e+01              19.221          -5.067e-01             313.712           1.412e+01     
  90.000         232.000           -3.221e-01          -1.381e+01              20.125          -5.213e-01             313.429           1.409e+01     
  90.000         233.000           -3.519e-01          -1.388e+01              21.020          -5.489e-01             313.167           1.406e+01     
  90.000         234.000           -3.945e-01          -1.396e+01              21.904          -5.899e-01             312.924           1.402e+01     
  90.000         235.000           -4.502e-01          -1.404e+01              22.779          -6.445e-01             312.699           1.398e+01     
  90.000         236.000           -5.192e-01          -1.412e+01              23.643          -7.128e-01             312.490           1.393e+01     
  90.000         237.000           -6.018e-01          -1.421e+01              24.496          -7.954e-01             312.296           1.387e+01     
  90.000         238.000           -6.984e-01          -1.429e+01              25.338          -8.926e-01             312.115           1.381e+01     
  90.000         239.000           -8.093e-01          -1.438e+01              26.168          -1.005e+00             311.947           1.374e+01     
  90.000         240.000           -9.350e-01          -1.446e+01              26.987          -1.132e+00             311.789           1.365e+01     
  90.000         241.000           -1.076e+00          -1.455e+01              27.792          -1.276e+00             311.642           1.355e+01     
  90.000         242.000           -1.233e+00          -1.464e+01              28.584          -1.436e+00             311.504           1.345e+01     
  90.000         243.000           -1.406e+00          -1.472e+01              29.362          -1.613e+00             311.375           1.332e+01     
  90.000         244.000           -1.596e+00          -1.481e+01              30.126          -1.808e+00             311.252           1.318e+01     
  90.000         245.000           -1.804e+00          -1.490e+01              30.874          -2.023e+00             311.136           1.303e+01     
  90.000         246.000           -2.031e+00          -1.498e+01              31.606          -2.257e+00             311.026           1.286e+01     
  90.000         247.000           -2.277e+00          -1.507e+01              32.320          -2.512e+00             310.921           1.267e+01     
  90.000         248.000           -2.544e+00          -1.515e+01              33.016          -2.789e+00             310.819           1.246e+01     
  90.000         249.000           -2.833e+00          -1.524e+01              33.693          -3.091e+00             310.721           1.222e+01     
  90.000         250.000           -3.146e+00          -1.532e+01              34.350          -3.417e+00             310.625           1.196e+01     
  90.000         251.000           -3.483e+00          -1.540e+01              34.986          -3.772e+00             310.531           1.167e+01     
  90.000         252.000           -3.847e+00          -1.547e+01              35.598          -4.156e+00             310.436           1.135e+01     
  90.000         253.000           -4.240e+00          -1.555e+01              36.188          -4.573e+00             310.341           1.100e+01     
  90.000         254.000           -4.664e+00          -1.562e+01              36.752          -5.027e+00             310.244           1.061e+01     
  90.000         255.000           -5.122e+00          -1.569e+01              37.290          -5.520e+00             310.143           1.018e+01     
  90.000         256.000           -5.616e+00          -1.576e+01              37.801          -6.059e+00             310.036           9.706e+00     
  90.000         257.000           -6.152e+00          -1.582e+01              38.283          -6.648e+00             309.921           9.175e+00     
  90.000         258.000           -6.732e+00          -1.588e+01              38.735          -7.295e+00             309.795           8.584e+00     
  90.000         259.000           -7.361e+00          -1.593e+01              39.157          -8.011e+00             309.654           7.922e+00     
  90.000         260.000           -8.045e+00          -1.598e+01              39.546          -8.806e+00             309.491           7.177e+00     
  90.000         261.000           -8.789e+00          -1.603e+01              39.901          -9.697e+00             309.300           6.333e+00     
  90.000         262.000           -9.598e+00          -1.607e+01              40.223          -1.071e+01             309.066           5.368e+00     
  90.000         263.000           -1.048e+01          -1.611e+01              40.509          -1.187e+01             308.771           4.253e+00     
  90.000         264.000           -1.143e+01          -1.614e+01              40.759          -1.322e+01             308.382           2.946e+00     
  90.000         265.000           -1.244e+01          -1.617e+01              40.971          -1.484e+01             307.837           1.413e+00     
  90.000         266.000           -1.350e+01          -1.619e+01              41.146          -1.685e+01             307.013           9.093e-01     
  90.000         267.000           -1.454e+01          -1.621e+01              41.283          -1.949e+01             305.608           3.394e+00     
  90.000         268.000           -1.545e+01          -1.622e+01              41.380          -2.330e+01             302.657           7.225e+00     
  90.000         269.000           -1.606e+01          -1.623e+01              41.439          -3.011e+01             292.578           1.440e+01     
  90.000         270.000           -1.621e+01          -1.624e+01              41.458          -3.775e+01             180.171           2.516e+01     
  90.000         271.000           -1.584e+01          -1.623e+01              41.437          -2.646e+01             142.804           1.043e+01     
  90.000         272.000           -1.507e+01          -1.623e+01              41.377          -2.140e+01             137.512           5.269e+00     
  90.000         273.000           -1.409e+01          -1.621e+01              41.278          -1.822e+01             135.472           2.104e+00     
  90.000         274.000           -1.303e+01          -1.620e+01              41.140          -1.590e+01             134.397           5.765e-01     
  90.000         275.000           -1.199e+01          -1.617e+01              40.964          -1.408e+01             133.736           2.135e+00     
  90.000         276.000           -1.100e+01          -1.615e+01              40.749          -1.259e+01             133.291           3.578e+00     
  90.000         277.000           -1.008e+01          -1.611e+01              40.498          -1.133e+01             132.974           4.801e+00     
  90.000         278.000           -9.234e+00          -1.608e+01              40.210          -1.024e+01             132.738           5.850e+00     
  90.000         279.000           -8.453e+00          -1.603e+01              39.886          -9.286e+00             132.558           6.762e+00     
  90.000         280.000           -7.736e+00          -1.599e+01              39.528          -8.440e+00             132.418           7.564e+00     
  90.000         281.000           -7.076e+00          -1.594e+01              39.137          -7.681e+00             132.309           8.274e+00     
  90.000         282.000           -6.469e+00          -1.588e+01              38.713          -6.997e+00             132.224           8.907e+00     
  90.000         283.000           -5.909e+00          -1.582e+01              38.258          -6.376e+00             132.157           9.474e+00     
  90.000         284.000           -5.392e+00          -1.576e+01              37.773          -5.810e+00             132.106           9.983e+00     
  90.000         285.000           -4.913e+00          -1.570e+01              37.259          -5.292e+00             132.069           1.044e+01     
  90.000         286.000           -4.470e+00          -1.563e+01              36.717          -4.816e+00             132.043           1.086e+01     
  90.000         287.000           -4.060e+00          -1.556e+01              36.149          -4.379e+00             132.029           1.123e+01     
  90.000         288.000           -3.680e+00          -1.548e+01              35.556          -3.977e+00             132.023           1.157e+01     
  90.000         289.000           -3.328e+00          -1.541e+01              34.939          -3.606e+00             132.027           1.188e+01     
  90.000         290.000           -3.001e+00          -1.533e+01              34.300          -3.263e+00             132.040           1.215e+01     
  90.000         291.000           -2.699e+00          -1.524e+01              33.639          -2.948e+00             132.062           1.240e+01     
  90.000         292.000           -2.420e+00          -1.516e+01              32.957          -2.657e+00             132.091           1.263e+01     
  90.000         293.000           -2.162e+00          -1.508e+01              32.257          -2.389e+00             132.130           1.283e+01     
  90.000         294.000           -1.924e+00          -1.499e+01              31.538          -2.144e+00             132.177           1.302e+01     
  90.000         295.000           -1.705e+00          -1.491e+01              30.801          -1.918e+00             132.233           1.318e+01     
  90.000         296.000           -1.505e+00          -1.482e+01              30.048          -1.712e+00             132.298           1.333e+01     
  90.000         297.000           -1.322e+00          -1.473e+01              29.280          -1.525e+00             132.372           1.346e+01     
  90.000         298.000           -1.156e+00          -1.464e+01              28.497          -1.355e+00             132.457           1.357e+01     
  90.000         299.000           -1.006e+00          -1.456e+01              27.700          -1.202e+00             132.553           1.368e+01     
  90.000         300.000           -8.716e-01          -1.447e+01              26.889          -1.066e+00             132.659           1.377e+01     
  90.000         301.000           -7.522e-01          -1.438e+01              26.066          -9.448e-01             132.778           1.385e+01     
  90.000         302.000           -6.475e-01          -1.430e+01              25.231          -8.392e-01             132.910           1.391e+01     
  90.000         303.000           -5.570e-01          -1.421e+01              24.384          -7.484e-01             133.056           1.397e+01     
  90.000         304.000           -4.803e-01          -1.413e+01              23.526          -6.720e-01             133.216           1.402e+01     
  90.000         305.000           -4.171e-01          -1.404e+01              22.658          -6.097e-01             133.392           1.407e+01     
  90.000         306.000           -3.672e-01          -1.396e+01              21.779          -5.612e-01             133.586           1.410e+01     
  90.000         307.000           -3.303e-01          -1.389e+01              20.890          -5.262e-01             133.798           1.414e+01     
  90.000         308.000           -3.060e-01          -1.381e+01              19.991          -5.044e-01             134.030           1.416e+01     
  90.000         309.000           -2.944e-01          -1.373e+01              19.083          -4.957e-01             134.283           1.418e+01     
  90.000         310.000           -2.950e-01          -1.366e+01              18.165          -4.998e-01             134.561           1.420e+01     
  90.000         311.000           -3.079e-01          -1.359e+01              17.239          -5.167e-01             134.863           1.422e+01     
  90.000         312.000           -3.328e-01          -1.353e+01              16.303          -5.462e-01             135.193           1.424e+01     
  90.000         313.000           -3.695e-01          -1.346e+01              15.358          -5.880e-01             135.553           1.426e+01     
  90.000         314.000           -4.181e-01          -1.340e+01              14.405          -6.423e-01             135.946           1.428e+01     
  90.000         315.000           -4.782e-01          -1.334e+01              13.443          -7.087e-01             136.374           1.430e+01     
  90.000         316.000           -5.498e-01          -1.329e+01              12.472          -7.873e-01             136.841           1.433e+01     
  90.000         317.000           -6.327e-01          -1.324e+01              11.492          -8.778e-01             137.350           1.436e+01     
  90.000         318.000           -7.268e-01          -1.319e+01              10.504          -9.803e-01             137.905           1.441e+01     
  90.000         319.000           -8.319e-01          -1.315e+01               9.506          -1.094e+00             138.510           1.446e+01     
  90.000         320.000           -9.478e-01          -1.311e+01               8.500          -1.220e+00             139.169           1.453e+01     
  90.000         321.000           -1.074e+00          -1.307e+01               7.485          -1.357e+00             139.888           1.462e+01     
  90.000         322.000           -1.211e+00          -1.304e+01               6.461          -1.506e+00             140.671           1.473e+01     
  90.000         323.000           -1.358e+00          -1.301e+01               5.427          -1.665e+00             141.526           1.486e+01     
  90.000         324.000           -1.514e+00          -1.299e+01               4.384          -1.835e+00             142.458           1.503e+01     
  90.000         325.000           -1.679e+00          -1.297e+01               3.331          -2.015e+00             143.474           1.524e+01     
  90.000         326.000           -1.853e+00          -1.296e+01               2.269          -2.204e+00             144.582           1.549e+01     
  90.000         327.000           -2.035e+00          -1.295e+01               1.197          -2.402e+00             145.789           1.579e+01     
  90.000         328.000           -2.223e+00          -1.294e+01               0.115          -2.608e+00             147.105           1.617e+01     
  90.000         329.000           -2.418e+00          -1.294e+01             359.022          -2.821e+00             148.538           1.664e+01     
  90.000         330.000           -2.617e+00          -1.295e+01             357.918          -3.039e+00             150.097           1.721e+01     
  90.000         331.000           -2.819e+00          -1.296e+01             356.804          -3.261e+00             151.790           1.792e+01     
  90.000         332.000           -3.022e+00          -1.297e+01             355.678          -3.485e+00             153.627           1.881e+01     
  90.000         333.000           -3.225e+00          -1.299e+01             354.540          -3.710e+00             155.616           1.995e+01     
  90.000         334.000           -3.426e+00          -1.302e+01             353.391          -3.931e+00             157.763           2.143e+01     
  90.000         335.000           -3.621e+00          -1.305e+01             352.229          -4.146e+00             160.074           2.345e+01     
  90.000         336.000           -3.807e+00          -1.309e+01             351.054          -4.353e+00             162.552           2.641e+01     
  90.000         337.000           -3.983e+00          -1.313e+01             349.865          -4.546e+00             165.194           3.149e+01     
  90.000         338.000           -4.143e+00          -1.318e+01             348.663          -4.723e+00             167.997           4.000e+01     
  90.000         339.000           -4.287e+00          -1.323e+01             347.446          -4.879e+00             170.951           3.381e+01     
  90.000         340.000           -4.409e+00          -1.329e+01             346.215          -5.010e+00             174.039           2.679e+01     
  90.000         341.000           -4.507e+00          -1.336e+01             344.968          -5.113e+00             177.242           2.286e+01     
  90.000         342.000           -4.578e+00          -1.343e+01             343.704          -5.184e+00             180.532           2.014e+01     
  90.000         343.000           -4.621e+00          -1.351e+01             342.423          -5.221e+00             183.879           1.809e+01     
  90.000         344.000           -4.633e+00          -1.360e+01             341.125          -5.223e+00             187.248           1.648e+01     
  90.000         345.000           -4.615e+00          -1.369e+01             339.807          -5.189e+00             190.603           1.520e+01     
  90.000         346.000           -4.567e+00          -1.379e+01             338.470          -5.121e+00             193.910           1.418e+01     
  90.000         347.000           -4.490e+00          -1.389e+01             337.112          -5.019e+00             197.136           1.338e+01     
  90.000         348.000           -4.385e+00          -1.400e+01             335.732          -4.887e+00             200.251           1.276e+01     
  90.000         349.000           -4.256e+00          -1.412e+01             334.329          -4.728e+00             203.232           1.230e+01     
  90.000         350.000           -4.104e+00          -1.425e+01             332.902          -4.546e+00             206.061           1.199e+01     
  90.000         351.000           -3.934e+00          -1.439e+01             331.448          -4.344e+00             208.724           1.181e+01     
  90.000         352.000           -3.748e+00          -1.453e+01             329.967          -4.127e+00             211.216           1.174e+01     
  90.000         353.000           -3.550e+00          -1.468e+01             328.457          -3.898e+00             213.532           1.177e+01     
  90.000         354.000           -3.342e+00          -1.484e+01             326.915          -3.661e+00             215.675           1.188e+01     
  90.000         355.000           -3.127e+00          -1.501e+01             325.339          -3.418e+00             217.647           1.207e+01     
  90.000         356.000           -2.908e+00          -1.518e+01             323.727          -3.173e+00             219.456           1.232e+01     
  90.000         357.000           -2.687e+00          -1.537e+01             322.077          -2.928e+00             221.109           1.262e+01     
  90.000         358.000           -2.466e+00          -1.556e+01             320.384          -2.685e+00             222.615           1.296e+01     
  90.000         359.000           -2.247e+00          -1.576e+01             318.647          -2.445e+00             223.983           1.335e+01     
