Theta [deg.]  Phi   [deg.]  Abs(Grlz)[dBi   ]   Abs(Theta)[dBi   ]  Phase(Theta)[deg.]  Abs(Phi  )[dBi   ]  Phase(Phi  )[deg.]  Ax.Ratio[dB    ]    
------------------------------------------------------------------------------------------------------------------------------------------------------
  90.000           0.000           -3.039e+00          -1.518e+01             311.437          -3.313e+00             211.601           1.202e+01     
  90.000           1.000           -2.821e+00          -1.542e+01             309.862          -3.066e+00             213.536           1.242e+01     
  90.000           2.000           -2.604e+00          -1.567e+01             308.229          -2.823e+00             215.307           1.286e+01     
  90.000           3.000           -2.390e+00          -1.594e+01             306.531          -2.586e+00             216.925           1.335e+01     
  90.000           4.000           -2.180e+00          -1.621e+01             304.763          -2.355e+00             218.401           1.388e+01     
  90.000           5.000           -1.977e+00          -1.650e+01             302.914          -2.133e+00             219.746           1.443e+01     
  90.000           6.000           -1.780e+00          -1.680e+01             300.977          -1.919e+00             220.972           1.502e+01     
  90.000           7.000           -1.591e+00          -1.711e+01             298.940          -1.714e+00             222.086           1.564e+01     
  90.000           8.000           -1.410e+00          -1.744e+01             296.791          -1.520e+00             223.100           1.629e+01     
  90.000           9.000           -1.238e+00          -1.778e+01             294.516          -1.336e+00             224.021           1.698e+01     
  90.000          10.000           -1.075e+00          -1.813e+01             292.098          -1.162e+00             224.857           1.770e+01     
  90.000          11.000           -9.219e-01          -1.850e+01             289.519          -9.984e-01             225.616           1.847e+01     
  90.000          12.000           -7.780e-01          -1.888e+01             286.758          -8.458e-01             226.302           1.928e+01     
  90.000          13.000           -6.439e-01          -1.927e+01             283.789          -7.038e-01             226.923           2.015e+01     
  90.000          14.000           -5.194e-01          -1.968e+01             280.587          -5.725e-01             227.484           2.108e+01     
  90.000          15.000           -4.048e-01          -2.009e+01             277.122          -4.518e-01             227.989           2.210e+01     
  90.000          16.000           -2.999e-01          -2.050e+01             273.362          -3.416e-01             228.443           2.322e+01     
  90.000          17.000           -2.047e-01          -2.091e+01             269.274          -2.418e-01             228.850           2.448e+01     
  90.000          18.000           -1.192e-01          -2.132e+01             264.826          -1.523e-01             229.214           2.590e+01     
  90.000          19.000           -4.326e-02          -2.170e+01             259.994          -7.300e-02             229.537           2.758e+01     
  90.000          20.000            2.318e-02          -2.206e+01             254.760          -3.776e-03             229.824           2.960e+01     
  90.000          21.000            8.020e-02          -2.238e+01             249.125           5.549e-02             230.076           3.221e+01     
  90.000          22.000            1.279e-01          -2.264e+01             243.112           1.049e-01             230.297           3.587e+01     
  90.000          23.000            1.664e-01          -2.284e+01             236.776           1.446e-01             230.488           4.000e+01     
  90.000          24.000            1.958e-01          -2.295e+01             230.200           1.747e-01             230.651           4.000e+01     
  90.000          25.000            2.162e-01          -2.297e+01             223.497           1.953e-01             230.790           4.000e+01     
  90.000          26.000            2.278e-01          -2.290e+01             216.796           2.066e-01             230.904           3.541e+01     
  90.000          27.000            2.305e-01          -2.274e+01             210.227           2.085e-01             230.997           3.199e+01     
  90.000          28.000            2.246e-01          -2.249e+01             203.902           2.013e-01             231.069           2.954e+01     
  90.000          29.000            2.101e-01          -2.218e+01             197.910           1.849e-01             231.122           2.762e+01     
  90.000          30.000            1.872e-01          -2.180e+01             192.307           1.596e-01             231.157           2.605e+01     
  90.000          31.000            1.559e-01          -2.139e+01             187.119           1.253e-01             231.175           2.470e+01     
  90.000          32.000            1.163e-01          -2.095e+01             182.347           8.217e-02             231.178           2.352e+01     
  90.000          33.000            6.863e-02          -2.048e+01             177.976           3.023e-02             231.166           2.247e+01     
  90.000          34.000            1.293e-02          -2.001e+01             173.983          -3.044e-02             231.140           2.152e+01     
  90.000          35.000           -5.071e-02          -1.954e+01             170.333          -9.980e-02             231.101           2.065e+01     
  90.000          36.000           -1.222e-01          -1.908e+01             166.996          -1.778e-01             231.051           1.984e+01     
  90.000          37.000           -2.014e-01          -1.862e+01             163.940          -2.644e-01             230.988           1.909e+01     
  90.000          38.000           -2.882e-01          -1.816e+01             161.134          -3.596e-01             230.915           1.837e+01     
  90.000          39.000           -3.824e-01          -1.773e+01             158.550          -4.633e-01             230.832           1.770e+01     
  90.000          40.000           -4.841e-01          -1.730e+01             156.166          -5.755e-01             230.740           1.706e+01     
  90.000          41.000           -5.930e-01          -1.689e+01             153.959          -6.962e-01             230.638           1.644e+01     
  90.000          42.000           -7.091e-01          -1.649e+01             151.910          -8.254e-01             230.529           1.584e+01     
  90.000          43.000           -8.321e-01          -1.610e+01             150.002          -9.631e-01             230.411           1.527e+01     
  90.000          44.000           -9.620e-01          -1.573e+01             148.222          -1.109e+00             230.286           1.471e+01     
  90.000          45.000           -1.099e+00          -1.537e+01             146.557          -1.264e+00             230.154           1.417e+01     
  90.000          46.000           -1.242e+00          -1.503e+01             144.996          -1.428e+00             230.015           1.363e+01     
  90.000          47.000           -1.392e+00          -1.469e+01             143.529          -1.599e+00             229.871           1.311e+01     
  90.000          48.000           -1.547e+00          -1.437e+01             142.149          -1.780e+00             229.720           1.260e+01     
  90.000          49.000           -1.709e+00          -1.407e+01             140.847          -1.970e+00             229.565           1.210e+01     
  90.000          50.000           -1.877e+00          -1.377e+01             139.617          -2.168e+00             229.404           1.160e+01     
  90.000          51.000           -2.051e+00          -1.348e+01             138.455          -2.375e+00             229.239           1.111e+01     
  90.000          52.000           -2.230e+00          -1.321e+01             137.354          -2.591e+00             229.070           1.062e+01     
  90.000          53.000           -2.414e+00          -1.294e+01             136.311          -2.816e+00             228.898           1.014e+01     
  90.000          54.000           -2.603e+00          -1.269e+01             135.321          -3.051e+00             228.722           9.659e+00     
  90.000          55.000           -2.797e+00          -1.245e+01             134.382          -3.295e+00             228.543           9.181e+00     
  90.000          56.000           -2.995e+00          -1.221e+01             133.490          -3.549e+00             228.362           8.704e+00     
  90.000          57.000           -3.197e+00          -1.199e+01             132.642          -3.813e+00             228.179           8.229e+00     
  90.000          58.000           -3.403e+00          -1.177e+01             131.836          -4.087e+00             227.994           7.754e+00     
  90.000          59.000           -3.613e+00          -1.156e+01             131.070          -4.372e+00             227.808           7.279e+00     
  90.000          60.000           -3.825e+00          -1.136e+01             130.342          -4.667e+00             227.621           6.803e+00     
  90.000          61.000           -4.040e+00          -1.117e+01             129.649          -4.974e+00             227.435           6.328e+00     
  90.000          62.000           -4.257e+00          -1.099e+01             128.991          -5.293e+00             227.248           5.851e+00     
  90.000          63.000           -4.476e+00          -1.081e+01             128.365          -5.624e+00             227.063           5.374e+00     
  90.000          64.000           -4.695e+00          -1.065e+01             127.771          -5.969e+00             226.879           4.897e+00     
  90.000          65.000           -4.916e+00          -1.049e+01             127.207          -6.327e+00             226.697           4.421e+00     
  90.000          66.000           -5.136e+00          -1.033e+01             126.672          -6.699e+00             226.518           3.948e+00     
  90.000          67.000           -5.356e+00          -1.019e+01             126.165          -7.087e+00             226.341           3.481e+00     
  90.000          68.000           -5.575e+00          -1.005e+01             125.685          -7.492e+00             226.169           3.028e+00     
  90.000          69.000           -5.791e+00          -9.918e+00             125.232          -7.915e+00             226.001           2.599e+00     
  90.000          70.000           -6.006e+00          -9.793e+00             124.804          -8.357e+00             225.839           2.218e+00     
  90.000          71.000           -6.217e+00          -9.675e+00             124.400          -8.821e+00             225.682           1.924e+00     
  90.000          72.000           -6.423e+00          -9.563e+00             124.021          -9.308e+00             225.533           1.776e+00     
  90.000          73.000           -6.625e+00          -9.459e+00             123.665          -9.821e+00             225.391           1.827e+00     
  90.000          74.000           -6.822e+00          -9.360e+00             123.332          -1.036e+01             225.258           2.082e+00     
  90.000          75.000           -7.012e+00          -9.268e+00             123.021          -1.094e+01             225.134           2.500e+00     
  90.000          76.000           -7.195e+00          -9.182e+00             122.733          -1.155e+01             225.022           3.034e+00     
  90.000          77.000           -7.370e+00          -9.102e+00             122.465          -1.220e+01             224.921           3.656e+00     
  90.000          78.000           -7.537e+00          -9.029e+00             122.219          -1.290e+01             224.835           4.354e+00     
  90.000          79.000           -7.694e+00          -8.961e+00             121.994          -1.366e+01             224.764           5.123e+00     
  90.000          80.000           -7.840e+00          -8.900e+00             121.789          -1.449e+01             224.712           5.969e+00     
  90.000          81.000           -7.976e+00          -8.844e+00             121.604          -1.539e+01             224.681           6.901e+00     
  90.000          82.000           -8.100e+00          -8.795e+00             121.439          -1.640e+01             224.676           7.935e+00     
  90.000          83.000           -8.212e+00          -8.751e+00             121.294          -1.754e+01             224.705           9.097e+00     
  90.000          84.000           -8.311e+00          -8.714e+00             121.168          -1.884e+01             224.779           1.042e+01     
  90.000          85.000           -8.396e+00          -8.682e+00             121.062          -2.036e+01             224.917           1.197e+01     
  90.000          86.000           -8.468e+00          -8.656e+00             120.974          -2.221e+01             225.158           1.385e+01     
  90.000          87.000           -8.525e+00          -8.635e+00             120.906          -2.455e+01             225.586           1.621e+01     
  90.000          88.000           -8.568e+00          -8.621e+00             120.857          -2.774e+01             226.435           1.946e+01     
  90.000          89.000           -8.596e+00          -8.612e+00             120.826          -3.284e+01             228.685           2.466e+01     
  90.000          90.000           -8.609e+00          -8.609e+00             120.815          -4.620e+01             247.956           3.956e+01     
  90.000          91.000           -8.606e+00          -8.612e+00             120.822          -3.712e+01              35.288           2.853e+01     
  90.000          92.000           -8.588e+00          -8.621e+00             120.848          -2.987e+01              40.041           2.136e+01     
  90.000          93.000           -8.556e+00          -8.635e+00             120.894          -2.596e+01              41.387           1.747e+01     
  90.000          94.000           -8.508e+00          -8.656e+00             120.958          -2.326e+01              42.049           1.478e+01     
  90.000          95.000           -8.445e+00          -8.682e+00             121.041          -2.120e+01              42.466           1.272e+01     
  90.000          96.000           -8.368e+00          -8.714e+00             121.143          -1.954e+01              42.771           1.103e+01     
  90.000          97.000           -8.277e+00          -8.751e+00             121.265          -1.813e+01              43.017           9.610e+00     
  90.000          98.000           -8.173e+00          -8.795e+00             121.406          -1.692e+01              43.233           8.375e+00     
  90.000          99.000           -8.055e+00          -8.845e+00             121.566          -1.585e+01              43.431           7.281e+00     
  90.000         100.000           -7.925e+00          -8.900e+00             121.747          -1.489e+01              43.620           6.299e+00     
  90.000         101.000           -7.783e+00          -8.962e+00             121.948          -1.402e+01              43.804           5.410e+00     
  90.000         102.000           -7.630e+00          -9.029e+00             122.169          -1.323e+01              43.986           4.601e+00     
  90.000         103.000           -7.467e+00          -9.103e+00             122.411          -1.250e+01              44.170           3.864e+00     
  90.000         104.000           -7.295e+00          -9.183e+00             122.674          -1.182e+01              44.355           3.201e+00     
  90.000         105.000           -7.114e+00          -9.269e+00             122.958          -1.119e+01              44.542           2.620e+00     
  90.000         106.000           -6.924e+00          -9.361e+00             123.265          -1.060e+01              44.732           2.147e+00     
  90.000         107.000           -6.728e+00          -9.460e+00             123.594          -1.004e+01              44.926           1.824e+00     
  90.000         108.000           -6.526e+00          -9.565e+00             123.945          -9.508e+00              45.122           1.706e+00     
  90.000         109.000           -6.318e+00          -9.677e+00             124.321          -9.006e+00              45.321           1.809e+00     
  90.000         110.000           -6.106e+00          -9.795e+00             124.720          -8.529e+00              45.522           2.082e+00     
  90.000         111.000           -5.890e+00          -9.920e+00             125.144          -8.075e+00              45.726           2.459e+00     
  90.000         112.000           -5.671e+00          -1.005e+01             125.594          -7.641e+00              45.932           2.892e+00     
  90.000         113.000           -5.449e+00          -1.019e+01             126.070          -7.225e+00              46.139           3.353e+00     
  90.000         114.000           -5.227e+00          -1.034e+01             126.573          -6.827e+00              46.347           3.829e+00     
  90.000         115.000           -5.003e+00          -1.049e+01             127.104          -6.445e+00              46.556           4.311e+00     
  90.000         116.000           -4.779e+00          -1.065e+01             127.664          -6.079e+00              46.766           4.796e+00     
  90.000         117.000           -4.555e+00          -1.082e+01             128.255          -5.726e+00              46.975           5.282e+00     
  90.000         118.000           -4.332e+00          -1.100e+01             128.877          -5.387e+00              47.184           5.768e+00     
  90.000         119.000           -4.111e+00          -1.118e+01             129.532          -5.061e+00              47.392           6.252e+00     
  90.000         120.000           -3.892e+00          -1.137e+01             130.222          -4.747e+00              47.599           6.736e+00     
  90.000         121.000           -3.675e+00          -1.157e+01             130.948          -4.444e+00              47.804           7.219e+00     
  90.000         122.000           -3.461e+00          -1.178e+01             131.712          -4.153e+00              48.007           7.701e+00     
  90.000         123.000           -3.251e+00          -1.200e+01             132.516          -3.873e+00              48.207           8.184e+00     
  90.000         124.000           -3.044e+00          -1.222e+01             133.362          -3.603e+00              48.405           8.666e+00     
  90.000         125.000           -2.841e+00          -1.246e+01             134.252          -3.343e+00              48.599           9.149e+00     
  90.000         126.000           -2.643e+00          -1.271e+01             135.191          -3.094e+00              48.789           9.634e+00     
  90.000         127.000           -2.449e+00          -1.296e+01             136.180          -2.854e+00              48.976           1.012e+01     
  90.000         128.000           -2.261e+00          -1.323e+01             137.224          -2.623e+00              49.158           1.061e+01     
  90.000         129.000           -2.077e+00          -1.350e+01             138.325          -2.402e+00              49.335           1.110e+01     
  90.000         130.000           -1.899e+00          -1.379e+01             139.490          -2.190e+00              49.508           1.160e+01     
  90.000         131.000           -1.727e+00          -1.409e+01             140.722          -1.987e+00              49.675           1.210e+01     
  90.000         132.000           -1.561e+00          -1.440e+01             142.028          -1.793e+00              49.836           1.261e+01     
  90.000         133.000           -1.400e+00          -1.472e+01             143.413          -1.607e+00              49.991           1.313e+01     
  90.000         134.000           -1.246e+00          -1.506e+01             144.887          -1.431e+00              50.139           1.366e+01     
  90.000         135.000           -1.099e+00          -1.540e+01             146.456          -1.263e+00              50.280           1.419e+01     
  90.000         136.000           -9.581e-01          -1.576e+01             148.130          -1.104e+00              50.414           1.474e+01     
  90.000         137.000           -8.240e-01          -1.614e+01             149.922          -9.537e-01              50.541           1.531e+01     
  90.000         138.000           -6.969e-01          -1.653e+01             151.843          -8.119e-01              50.659           1.589e+01     
  90.000         139.000           -5.768e-01          -1.693e+01             153.908          -6.786e-01              50.768           1.649e+01     
  90.000         140.000           -4.639e-01          -1.734e+01             156.134          -5.540e-01              50.869           1.711e+01     
  90.000         141.000           -3.583e-01          -1.777e+01             158.541          -4.379e-01              50.959           1.776e+01     
  90.000         142.000           -2.602e-01          -1.821e+01             161.150          -3.303e-01              51.040           1.844e+01     
  90.000         143.000           -1.696e-01          -1.866e+01             163.985          -2.314e-01              51.110           1.916e+01     
  90.000         144.000           -8.658e-02          -1.913e+01             167.076          -1.411e-01              51.168           1.993e+01     
  90.000         145.000           -1.137e-02          -1.959e+01             170.451          -5.944e-02              51.214           2.074e+01     
  90.000         146.000            5.598e-02          -2.007e+01             174.143           1.355e-02              51.248           2.162e+01     
  90.000         147.000            1.153e-01          -2.053e+01             178.183           7.779e-02              51.268           2.258e+01     
  90.000         148.000            1.667e-01          -2.099e+01             182.604           1.333e-01              51.274           2.364e+01     
  90.000         149.000            2.098e-01          -2.143e+01             187.428           1.799e-01              51.264           2.483e+01     
  90.000         150.000            2.446e-01          -2.184e+01             192.668           2.177e-01              51.238           2.620e+01     
  90.000         151.000            2.711e-01          -2.221e+01             198.319           2.465e-01              51.195           2.780e+01     
  90.000         152.000            2.891e-01          -2.252e+01             204.350           2.663e-01              51.133           2.974e+01     
  90.000         153.000            2.985e-01          -2.275e+01             210.702           2.770e-01              51.052           3.224e+01     
  90.000         154.000            2.993e-01          -2.290e+01             217.283           2.784e-01              50.949           3.575e+01     
  90.000         155.000            2.912e-01          -2.296e+01             223.976           2.706e-01              50.825           4.000e+01     
  90.000         156.000            2.742e-01          -2.293e+01             230.652           2.534e-01              50.676           4.000e+01     
  90.000         157.000            2.483e-01          -2.280e+01             237.185           2.268e-01              50.501           4.000e+01     
  90.000         158.000            2.133e-01          -2.260e+01             243.467           1.905e-01              50.298           3.568e+01     
  90.000         159.000            1.690e-01          -2.233e+01             249.418           1.445e-01              50.066           3.211e+01     
  90.000         160.000            1.155e-01          -2.201e+01             254.988           8.878e-02              49.801           2.956e+01     
  90.000         161.000            5.257e-02          -2.165e+01             260.159           2.310e-02              49.502           2.756e+01     
  90.000         162.000           -1.983e-02          -2.126e+01             264.932          -5.260e-02              49.166           2.591e+01     
  90.000         163.000           -1.018e-01          -2.086e+01             269.325          -1.384e-01              48.789           2.450e+01     
  90.000         164.000           -1.933e-01          -2.045e+01             273.365          -2.345e-01              48.369           2.326e+01     
  90.000         165.000           -2.946e-01          -2.004e+01             277.083          -3.409e-01              47.901           2.216e+01     
  90.000         166.000           -4.055e-01          -1.963e+01             280.512          -4.578e-01              47.383           2.115e+01     
  90.000         167.000           -5.261e-01          -1.923e+01             283.683          -5.851e-01              46.809           2.022e+01     
  90.000         168.000           -6.564e-01          -1.884e+01             286.625          -7.229e-01              46.174           1.936e+01     
  90.000         169.000           -7.964e-01          -1.847e+01             289.365          -8.713e-01              45.475           1.856e+01     
  90.000         170.000           -9.457e-01          -1.810e+01             291.926          -1.030e+00              44.704           1.780e+01     
  90.000         171.000           -1.104e+00          -1.775e+01             294.329          -1.199e+00              43.856           1.709e+01     
  90.000         172.000           -1.272e+00          -1.741e+01             296.593          -1.379e+00              42.924           1.641e+01     
  90.000         173.000           -1.449e+00          -1.709e+01             298.733          -1.569e+00              41.900           1.577e+01     
  90.000         174.000           -1.633e+00          -1.678e+01             300.763          -1.768e+00              40.777           1.516e+01     
  90.000         175.000           -1.825e+00          -1.648e+01             302.696          -1.976e+00              39.544           1.457e+01     
  90.000         176.000           -2.024e+00          -1.620e+01             304.541          -2.194e+00              38.194           1.403e+01     
  90.000         177.000           -2.229e+00          -1.593e+01             306.308          -2.418e+00              36.715           1.351e+01     
  90.000         178.000           -2.438e+00          -1.567e+01             308.005          -2.650e+00              35.098           1.303e+01     
  90.000         179.000           -2.651e+00          -1.542e+01             309.639          -2.887e+00              33.331           1.259e+01     
  90.000         180.000           -2.865e+00          -1.519e+01             311.216          -3.127e+00              31.404           1.220e+01     
  90.000         181.000           -3.078e+00          -1.496e+01             312.742          -3.369e+00              29.305           1.187e+01     
  90.000         182.000           -3.287e+00          -1.474e+01             314.221          -3.609e+00              27.024           1.159e+01     
  90.000         183.000           -3.490e+00          -1.454e+01             315.658          -3.846e+00              24.554           1.140e+01     
  90.000         184.000           -3.684e+00          -1.434e+01             317.055          -4.075e+00              21.887           1.129e+01     
  90.000         185.000           -3.866e+00          -1.416e+01             318.418          -4.292e+00              19.022           1.129e+01     
  90.000         186.000           -4.030e+00          -1.398e+01             319.748          -4.493e+00              15.959           1.142e+01     
  90.000         187.000           -4.174e+00          -1.381e+01             321.049          -4.673e+00              12.706           1.168e+01     
  90.000         188.000           -4.293e+00          -1.365e+01             322.322          -4.828e+00               9.276           1.210e+01     
  90.000         189.000           -4.385e+00          -1.350e+01             323.570          -4.953e+00               5.690           1.270e+01     
  90.000         190.000           -4.446e+00          -1.336e+01             324.795          -5.044e+00               1.977           1.351e+01     
  90.000         191.000           -4.475e+00          -1.322e+01             325.999          -5.096e+00             358.171           1.455e+01     
  90.000         192.000           -4.469e+00          -1.310e+01             327.183          -5.109e+00             354.311           1.587e+01     
  90.000         193.000           -4.428e+00          -1.298e+01             328.349          -5.082e+00             350.441           1.754e+01     
  90.000         194.000           -4.354e+00          -1.286e+01             329.498          -5.014e+00             346.603           1.971e+01     
  90.000         195.000           -4.248e+00          -1.276e+01             330.631          -4.908e+00             342.838           2.262e+01     
  90.000         196.000           -4.113e+00          -1.266e+01             331.750          -4.767e+00             339.184           2.694e+01     
  90.000         197.000           -3.951e+00          -1.256e+01             332.855          -4.594e+00             335.669           3.543e+01     
  90.000         198.000           -3.767e+00          -1.248e+01             333.948          -4.395e+00             332.317           4.000e+01     
  90.000         199.000           -3.565e+00          -1.239e+01             335.030          -4.174e+00             329.143           2.921e+01     
  90.000         200.000           -3.348e+00          -1.232e+01             336.101          -3.937e+00             326.157           2.479e+01     
  90.000         201.000           -3.120e+00          -1.225e+01             337.161          -3.686e+00             323.361           2.209e+01     
  90.000         202.000           -2.885e+00          -1.219e+01             338.213          -3.427e+00             320.754           2.022e+01     
  90.000         203.000           -2.645e+00          -1.213e+01             339.256          -3.164e+00             318.330           1.883e+01     
  90.000         204.000           -2.404e+00          -1.208e+01             340.291          -2.899e+00             316.082           1.777e+01     
  90.000         205.000           -2.163e+00          -1.203e+01             341.319          -2.636e+00             314.001           1.693e+01     
  90.000         206.000           -1.925e+00          -1.199e+01             342.340          -2.376e+00             312.076           1.626e+01     
  90.000         207.000           -1.691e+00          -1.195e+01             343.355          -2.121e+00             310.296           1.572e+01     
  90.000         208.000           -1.464e+00          -1.191e+01             344.364          -1.874e+00             308.650           1.528e+01     
  90.000         209.000           -1.243e+00          -1.189e+01             345.367          -1.635e+00             307.127           1.493e+01     
  90.000         210.000           -1.031e+00          -1.186e+01             346.365          -1.405e+00             305.719           1.464e+01     
  90.000         211.000           -8.267e-01          -1.184e+01             347.358          -1.185e+00             304.414           1.440e+01     
  90.000         212.000           -6.322e-01          -1.183e+01             348.347          -9.752e-01             303.205           1.420e+01     
  90.000         213.000           -4.475e-01          -1.182e+01             349.332          -7.766e-01             302.083           1.404e+01     
  90.000         214.000           -2.732e-01          -1.181e+01             350.313          -5.894e-01             301.041           1.391e+01     
  90.000         215.000           -1.092e-01          -1.180e+01             351.290          -4.137e-01             300.072           1.381e+01     
  90.000         216.000            4.392e-02          -1.180e+01             352.263          -2.496e-01             299.169           1.372e+01     
  90.000         217.000            1.862e-01          -1.181e+01             353.233          -9.739e-02             298.327           1.365e+01     
  90.000         218.000            3.174e-01          -1.181e+01             354.200           4.292e-02             297.541           1.359e+01     
  90.000         219.000            4.374e-01          -1.182e+01             355.163           1.713e-01             296.806           1.355e+01     
  90.000         220.000            5.462e-01          -1.183e+01             356.123           2.876e-01             296.119           1.351e+01     
  90.000         221.000            6.437e-01          -1.185e+01             357.080           3.920e-01             295.474           1.348e+01     
  90.000         222.000            7.299e-01          -1.187e+01             358.033           4.843e-01             294.869           1.345e+01     
  90.000         223.000            8.047e-01          -1.189e+01             358.983           5.646e-01             294.300           1.342e+01     
  90.000         224.000            8.681e-01          -1.191e+01             359.929           6.329e-01             293.765           1.340e+01     
  90.000         225.000            9.200e-01          -1.194e+01               0.872           6.890e-01             293.260           1.338e+01     
  90.000         226.000            9.605e-01          -1.196e+01               1.810           7.331e-01             292.785           1.335e+01     
  90.000         227.000            9.893e-01          -1.199e+01               2.745           7.650e-01             292.335           1.333e+01     
  90.000         228.000            1.007e+00          -1.202e+01               3.674           7.848e-01             291.910           1.330e+01     
  90.000         229.000            1.012e+00          -1.206e+01               4.599           7.922e-01             291.508           1.327e+01     
  90.000         230.000            1.006e+00          -1.209e+01               5.519           7.874e-01             291.127           1.324e+01     
  90.000         231.000            9.874e-01          -1.212e+01               6.433           7.700e-01             290.765           1.320e+01     
  90.000         232.000            9.572e-01          -1.216e+01               7.340           7.400e-01             290.422           1.315e+01     
  90.000         233.000            9.147e-01          -1.220e+01               8.241           6.973e-01             290.095           1.310e+01     
  90.000         234.000            8.598e-01          -1.224e+01               9.134           6.415e-01             289.785           1.305e+01     
  90.000         235.000            7.924e-01          -1.228e+01              10.019           5.726e-01             289.489           1.298e+01     
  90.000         236.000            7.121e-01          -1.231e+01              10.895           4.902e-01             289.207           1.291e+01     
  90.000         237.000            6.188e-01          -1.235e+01              11.762           3.941e-01             288.937           1.282e+01     
  90.000         238.000            5.122e-01          -1.239e+01              12.618           2.839e-01             288.680           1.273e+01     
  90.000         239.000            3.918e-01          -1.243e+01              13.464           1.591e-01             288.434           1.263e+01     
  90.000         240.000            2.574e-01          -1.247e+01              14.297           1.945e-02             288.199           1.252e+01     
  90.000         241.000            1.085e-01          -1.251e+01              15.117          -1.357e-01             287.973           1.239e+01     
  90.000         242.000           -5.539e-02          -1.255e+01              15.923          -3.069e-01             287.757           1.225e+01     
  90.000         243.000           -2.347e-01          -1.259e+01              16.715          -4.947e-01             287.549           1.210e+01     
  90.000         244.000           -4.302e-01          -1.263e+01              17.490          -7.000e-01             287.349           1.193e+01     
  90.000         245.000           -6.423e-01          -1.267e+01              18.249          -9.236e-01             287.157           1.175e+01     
  90.000         246.000           -8.720e-01          -1.271e+01              18.989          -1.166e+00             286.971           1.155e+01     
  90.000         247.000           -1.120e+00          -1.274e+01              19.710          -1.430e+00             286.792           1.133e+01     
  90.000         248.000           -1.387e+00          -1.278e+01              20.412          -1.714e+00             286.618           1.109e+01     
  90.000         249.000           -1.675e+00          -1.281e+01              21.091          -2.022e+00             286.449           1.082e+01     
  90.000         250.000           -1.984e+00          -1.284e+01              21.748          -2.355e+00             286.285           1.054e+01     
  90.000         251.000           -2.315e+00          -1.288e+01              22.382          -2.715e+00             286.124           1.022e+01     
  90.000         252.000           -2.671e+00          -1.291e+01              22.991          -3.103e+00             285.966           9.884e+00     
  90.000         253.000           -3.053e+00          -1.294e+01              23.574          -3.524e+00             285.809           9.512e+00     
  90.000         254.000           -3.462e+00          -1.296e+01              24.130          -3.979e+00             285.653           9.107e+00     
  90.000         255.000           -3.901e+00          -1.299e+01              24.659          -4.473e+00             285.496           8.664e+00     
  90.000         256.000           -4.372e+00          -1.301e+01              25.158          -5.011e+00             285.337           8.178e+00     
  90.000         257.000           -4.878e+00          -1.304e+01              25.628          -5.598e+00             285.173           7.647e+00     
  90.000         258.000           -5.420e+00          -1.306e+01              26.066          -6.241e+00             285.001           7.063e+00     
  90.000         259.000           -6.002e+00          -1.308e+01              26.473          -6.950e+00             284.817           6.421e+00     
  90.000         260.000           -6.627e+00          -1.310e+01              26.848          -7.736e+00             284.617           5.715e+00     
  90.000         261.000           -7.295e+00          -1.311e+01              27.189          -8.615e+00             284.391           4.940e+00     
  90.000         262.000           -8.009e+00          -1.313e+01              27.496          -9.606e+00             284.129           4.100e+00     
  90.000         263.000           -8.766e+00          -1.314e+01              27.769          -1.074e+01             283.812           3.232e+00     
  90.000         264.000           -9.561e+00          -1.315e+01              28.006          -1.206e+01             283.410           2.495e+00     
  90.000         265.000           -1.038e+01          -1.316e+01              28.208          -1.363e+01             282.867           2.401e+00     
  90.000         266.000           -1.119e+01          -1.317e+01              28.373          -1.556e+01             282.073           3.487e+00     
  90.000         267.000           -1.196e+01          -1.318e+01              28.501          -1.807e+01             280.769           5.670e+00     
  90.000         268.000           -1.260e+01          -1.318e+01              28.593          -2.160e+01             278.175           9.159e+00     
  90.000         269.000           -1.303e+01          -1.318e+01              28.648          -2.759e+01             270.414           1.558e+01     
  90.000         270.000           -1.317e+01          -1.318e+01              28.665          -3.896e+01             185.649           3.396e+01     
  90.000         271.000           -1.300e+01          -1.318e+01              28.645          -2.683e+01             119.897           1.365e+01     
  90.000         272.000           -1.254e+01          -1.318e+01              28.588          -2.120e+01             113.132           8.078e+00     
  90.000         273.000           -1.189e+01          -1.318e+01              28.494          -1.780e+01             110.758           4.784e+00     
  90.000         274.000           -1.112e+01          -1.317e+01              28.363          -1.536e+01             109.561           2.578e+00     
  90.000         275.000           -1.030e+01          -1.316e+01              28.196          -1.347e+01             108.848           1.457e+00     
  90.000         276.000           -9.488e+00          -1.315e+01              27.992          -1.193e+01             108.384           1.911e+00     
  90.000         277.000           -8.697e+00          -1.314e+01              27.752          -1.063e+01             108.064           2.922e+00     
  90.000         278.000           -7.944e+00          -1.313e+01              27.477          -9.513e+00             107.838           3.917e+00     
  90.000         279.000           -7.236e+00          -1.311e+01              27.167          -8.534e+00             107.675           4.821e+00     
  90.000         280.000           -6.572e+00          -1.310e+01              26.823          -7.666e+00             107.560           5.633e+00     
  90.000         281.000           -5.953e+00          -1.308e+01              26.446          -6.889e+00             107.480           6.362e+00     
  90.000         282.000           -5.375e+00          -1.306e+01              26.037          -6.187e+00             107.429           7.019e+00     
  90.000         283.000           -4.837e+00          -1.304e+01              25.595          -5.550e+00             107.401           7.613e+00     
  90.000         284.000           -4.336e+00          -1.301e+01              25.123          -4.969e+00             107.393           8.152e+00     
  90.000         285.000           -3.868e+00          -1.299e+01              24.621          -4.436e+00             107.402           8.643e+00     
  90.000         286.000           -3.433e+00          -1.296e+01              24.090          -3.946e+00             107.426           9.091e+00     
  90.000         287.000           -3.027e+00          -1.293e+01              23.531          -3.495e+00             107.463           9.500e+00     
  90.000         288.000           -2.649e+00          -1.290e+01              22.945          -3.079e+00             107.514           9.874e+00     
  90.000         289.000           -2.296e+00          -1.287e+01              22.334          -2.694e+00             107.576           1.022e+01     
  90.000         290.000           -1.967e+00          -1.284e+01              21.697          -2.337e+00             107.650           1.053e+01     
  90.000         291.000           -1.661e+00          -1.281e+01              21.038          -2.008e+00             107.735           1.082e+01     
  90.000         292.000           -1.376e+00          -1.277e+01              20.356          -1.703e+00             107.830           1.108e+01     
  90.000         293.000           -1.111e+00          -1.274e+01              19.652          -1.421e+00             107.936           1.132e+01     
  90.000         294.000           -8.659e-01          -1.270e+01              18.928          -1.160e+00             108.052           1.154e+01     
  90.000         295.000           -6.386e-01          -1.266e+01              18.186          -9.200e-01             108.178           1.174e+01     
  90.000         296.000           -4.287e-01          -1.263e+01              17.425          -6.989e-01             108.315           1.193e+01     
  90.000         297.000           -2.355e-01          -1.259e+01              16.648          -4.959e-01             108.463           1.210e+01     
  90.000         298.000           -5.832e-02          -1.255e+01              15.854          -3.104e-01             108.621           1.225e+01     
  90.000         299.000            1.035e-01          -1.251e+01              15.046          -1.414e-01             108.790           1.239e+01     
  90.000         300.000            2.503e-01          -1.247e+01              14.224           1.154e-02             108.971           1.251e+01     
  90.000         301.000            3.827e-01          -1.243e+01              13.390           1.491e-01             109.163           1.262e+01     
  90.000         302.000            5.011e-01          -1.239e+01              12.543           2.718e-01             109.368           1.273e+01     
  90.000         303.000            6.059e-01          -1.234e+01              11.686           3.799e-01             109.586           1.282e+01     
  90.000         304.000            6.973e-01          -1.230e+01              10.818           4.741e-01             109.817           1.290e+01     
  90.000         305.000            7.757e-01          -1.226e+01               9.941           5.545e-01             110.062           1.297e+01     
  90.000         306.000            8.413e-01          -1.222e+01               9.056           6.214e-01             110.321           1.303e+01     
  90.000         307.000            8.943e-01          -1.219e+01               8.162           6.752e-01             110.597           1.309e+01     
  90.000         308.000            9.350e-01          -1.215e+01               7.262           7.160e-01             110.889           1.314e+01     
  90.000         309.000            9.635e-01          -1.211e+01               6.355           7.441e-01             111.198           1.318e+01     
  90.000         310.000            9.800e-01          -1.207e+01               5.442           7.595e-01             111.527           1.322e+01     
  90.000         311.000            9.845e-01          -1.204e+01               4.523           7.624e-01             111.875           1.325e+01     
  90.000         312.000            9.772e-01          -1.201e+01               3.600           7.530e-01             112.245           1.328e+01     
  90.000         313.000            9.582e-01          -1.197e+01               2.672           7.313e-01             112.637           1.330e+01     
  90.000         314.000            9.276e-01          -1.194e+01               1.739           6.974e-01             113.055           1.332e+01     
  90.000         315.000            8.853e-01          -1.192e+01               0.803           6.513e-01             113.499           1.334e+01     
  90.000         316.000            8.315e-01          -1.189e+01             359.863           5.931e-01             113.971           1.336e+01     
  90.000         317.000            7.663e-01          -1.187e+01             358.919           5.227e-01             114.475           1.338e+01     
  90.000         318.000            6.895e-01          -1.185e+01             357.973           4.403e-01             115.012           1.340e+01     
  90.000         319.000            6.014e-01          -1.183e+01             357.023           3.457e-01             115.585           1.343e+01     
  90.000         320.000            5.018e-01          -1.181e+01             356.070           2.391e-01             116.198           1.345e+01     
  90.000         321.000            3.909e-01          -1.180e+01             355.114           1.203e-01             116.853           1.349e+01     
  90.000         322.000            2.687e-01          -1.179e+01             354.155          -1.058e-02             117.555           1.353e+01     
  90.000         323.000            1.352e-01          -1.178e+01             353.193          -1.535e-01             118.308           1.358e+01     
  90.000         324.000           -9.442e-03          -1.178e+01             352.228          -3.086e-01             119.117           1.364e+01     
  90.000         325.000           -1.651e-01          -1.178e+01             351.260          -4.756e-01             119.986           1.372e+01     
  90.000         326.000           -3.317e-01          -1.178e+01             350.289          -6.545e-01             120.921           1.381e+01     
  90.000         327.000           -5.089e-01          -1.179e+01             349.314          -8.451e-01             121.928           1.393e+01     
  90.000         328.000           -6.966e-01          -1.180e+01             348.336          -1.047e+00             123.016           1.408e+01     
  90.000         329.000           -8.943e-01          -1.181e+01             347.353          -1.261e+00             124.190           1.426e+01     
  90.000         330.000           -1.102e+00          -1.183e+01             346.366          -1.485e+00             125.460           1.449e+01     
  90.000         331.000           -1.318e+00          -1.186e+01             345.375          -1.720e+00             126.834           1.476e+01     
  90.000         332.000           -1.543e+00          -1.189e+01             344.379          -1.964e+00             128.321           1.510e+01     
  90.000         333.000           -1.775e+00          -1.192e+01             343.378          -2.217e+00             129.933           1.552e+01     
  90.000         334.000           -2.013e+00          -1.196e+01             342.371          -2.477e+00             131.681           1.604e+01     
  90.000         335.000           -2.256e+00          -1.200e+01             341.357          -2.743e+00             133.574           1.667e+01     
  90.000         336.000           -2.503e+00          -1.205e+01             340.337          -3.014e+00             135.626           1.748e+01     
  90.000         337.000           -2.750e+00          -1.210e+01             339.310          -3.287e+00             137.847           1.850e+01     
  90.000         338.000           -2.997e+00          -1.216e+01             338.275          -3.558e+00             140.248           1.982e+01     
  90.000         339.000           -3.239e+00          -1.222e+01             337.232          -3.826e+00             142.836           2.160e+01     
  90.000         340.000           -3.474e+00          -1.229e+01             336.180          -4.086e+00             145.620           2.413e+01     
  90.000         341.000           -3.699e+00          -1.237e+01             335.117          -4.334e+00             148.601           2.819e+01     
  90.000         342.000           -3.910e+00          -1.245e+01             334.044          -4.565e+00             151.777           3.725e+01     
  90.000         343.000           -4.102e+00          -1.254e+01             332.960          -4.774e+00             155.141           3.749e+01     
  90.000         344.000           -4.271e+00          -1.263e+01             331.863          -4.956e+00             158.678           2.754e+01     
  90.000         345.000           -4.415e+00          -1.273e+01             330.752          -5.107e+00             162.365           2.289e+01     
  90.000         346.000           -4.528e+00          -1.284e+01             329.628          -5.222e+00             166.170           1.982e+01     
  90.000         347.000           -4.609e+00          -1.295e+01             328.487          -5.297e+00             170.058           1.757e+01     
  90.000         348.000           -4.655e+00          -1.307e+01             327.329          -5.330e+00             173.985           1.583e+01     
  90.000         349.000           -4.666e+00          -1.320e+01             326.153          -5.321e+00             177.906           1.446e+01     
  90.000         350.000           -4.641e+00          -1.334e+01             324.958          -5.271e+00             181.777           1.339e+01     
  90.000         351.000           -4.582e+00          -1.348e+01             323.740          -5.181e+00             185.553           1.255e+01     
  90.000         352.000           -4.491e+00          -1.364e+01             322.499          -5.055e+00             189.200           1.193e+01     
  90.000         353.000           -4.372e+00          -1.380e+01             321.233          -4.898e+00             192.686           1.149e+01     
  90.000         354.000           -4.226e+00          -1.397e+01             319.939          -4.714e+00             195.990           1.122e+01     
  90.000         355.000           -4.060e+00          -1.415e+01             318.616          -4.508e+00             199.097           1.109e+01     
  90.000         356.000           -3.876e+00          -1.433e+01             317.259          -4.285e+00             201.999           1.109e+01     
  90.000         357.000           -3.678e+00          -1.453e+01             315.866          -4.051e+00             204.696           1.120e+01     
  90.000         358.000           -3.471e+00          -1.474e+01             314.434          -3.808e+00             207.191           1.140e+01     
  90.000         359.000           -3.257e+00          -1.496e+01             312.959          -3.561e+00             209.490           1.167e+01     
