Theta [deg.]  Phi   [deg.]  Abs(Grlz)[dBi   ]   Abs(Theta)[dBi   ]  Phase(Theta)[deg.]  Abs(Phi  )[dBi   ]  Phase(Phi  )[deg.]  Ax.Ratio[dB    ]    
------------------------------------------------------------------------------------------------------------------------------------------------------
  90.000           0.000            9.135e-01          -2.643e+01             353.332           9.055e-01              51.327           2.877e+01     
  90.000           1.000            8.585e-01          -2.644e+01             350.612           8.504e-01              51.326           2.848e+01     
  90.000           2.000            8.003e-01          -2.644e+01             347.871           7.921e-01              51.334           2.821e+01     
  90.000           3.000            7.391e-01          -2.644e+01             345.113           7.307e-01              51.349           2.794e+01     
  90.000           4.000            6.747e-01          -2.643e+01             342.342           6.663e-01              51.372           2.769e+01     
  90.000           5.000            6.074e-01          -2.640e+01             339.563           5.987e-01              51.403           2.745e+01     
  90.000           6.000            5.370e-01          -2.637e+01             336.780           5.281e-01              51.442           2.722e+01     
  90.000           7.000            4.636e-01          -2.633e+01             333.998           4.545e-01              51.490           2.700e+01     
  90.000           8.000            3.873e-01          -2.629e+01             331.222           3.779e-01              51.547           2.679e+01     
  90.000           9.000            3.080e-01          -2.623e+01             328.457           2.983e-01              51.612           2.659e+01     
  90.000          10.000            2.258e-01          -2.616e+01             325.707           2.158e-01              51.686           2.640e+01     
  90.000          11.000            1.406e-01          -2.609e+01             322.978           1.303e-01              51.770           2.622e+01     
  90.000          12.000            5.265e-02          -2.600e+01             320.274           4.186e-02              51.862           2.605e+01     
  90.000          13.000           -3.819e-02          -2.591e+01             317.600          -4.944e-02              51.963           2.589e+01     
  90.000          14.000           -1.319e-01          -2.581e+01             314.959          -1.436e-01              52.074           2.573e+01     
  90.000          15.000           -2.283e-01          -2.570e+01             312.355          -2.407e-01              52.194           2.559e+01     
  90.000          16.000           -3.276e-01          -2.559e+01             309.791          -3.405e-01              52.323           2.546e+01     
  90.000          17.000           -4.296e-01          -2.547e+01             307.271          -4.432e-01              52.461           2.534e+01     
  90.000          18.000           -5.344e-01          -2.534e+01             304.797          -5.488e-01              52.609           2.522e+01     
  90.000          19.000           -6.419e-01          -2.521e+01             302.372          -6.571e-01              52.766           2.512e+01     
  90.000          20.000           -7.521e-01          -2.507e+01             299.997          -7.682e-01              52.932           2.503e+01     
  90.000          21.000           -8.650e-01          -2.493e+01             297.673          -8.820e-01              53.108           2.494e+01     
  90.000          22.000           -9.805e-01          -2.479e+01             295.403          -9.987e-01              53.292           2.487e+01     
  90.000          23.000           -1.099e+00          -2.464e+01             293.186          -1.118e+00              53.486           2.481e+01     
  90.000          24.000           -1.220e+00          -2.449e+01             291.023          -1.240e+00              53.689           2.476e+01     
  90.000          25.000           -1.343e+00          -2.434e+01             288.915          -1.365e+00              53.900           2.472e+01     
  90.000          26.000           -1.469e+00          -2.418e+01             286.861          -1.493e+00              54.120           2.469e+01     
  90.000          27.000           -1.598e+00          -2.403e+01             284.861          -1.623e+00              54.348           2.467e+01     
  90.000          28.000           -1.730e+00          -2.387e+01             282.915          -1.756e+00              54.585           2.467e+01     
  90.000          29.000           -1.864e+00          -2.371e+01             281.022          -1.892e+00              54.830           2.468e+01     
  90.000          30.000           -2.001e+00          -2.356e+01             279.182          -2.031e+00              55.083           2.470e+01     
  90.000          31.000           -2.140e+00          -2.340e+01             277.394          -2.173e+00              55.343           2.474e+01     
  90.000          32.000           -2.282e+00          -2.324e+01             275.656          -2.317e+00              55.610           2.480e+01     
  90.000          33.000           -2.427e+00          -2.309e+01             273.968          -2.465e+00              55.885           2.486e+01     
  90.000          34.000           -2.575e+00          -2.293e+01             272.329          -2.615e+00              56.166           2.495e+01     
  90.000          35.000           -2.725e+00          -2.278e+01             270.738          -2.768e+00              56.453           2.505e+01     
  90.000          36.000           -2.878e+00          -2.262e+01             269.194          -2.925e+00              56.747           2.517e+01     
  90.000          37.000           -3.034e+00          -2.247e+01             267.695          -3.084e+00              57.046           2.532e+01     
  90.000          38.000           -3.193e+00          -2.233e+01             266.241          -3.247e+00              57.350           2.548e+01     
  90.000          39.000           -3.355e+00          -2.218e+01             264.830          -3.413e+00              57.659           2.567e+01     
  90.000          40.000           -3.521e+00          -2.204e+01             263.462          -3.582e+00              57.972           2.588e+01     
  90.000          41.000           -3.689e+00          -2.189e+01             262.134          -3.755e+00              58.290           2.612e+01     
  90.000          42.000           -3.860e+00          -2.175e+01             260.847          -3.931e+00              58.610           2.639e+01     
  90.000          43.000           -4.035e+00          -2.162e+01             259.600          -4.111e+00              58.934           2.669e+01     
  90.000          44.000           -4.213e+00          -2.148e+01             258.391          -4.295e+00              59.261           2.703e+01     
  90.000          45.000           -4.394e+00          -2.135e+01             257.219          -4.483e+00              59.589           2.740e+01     
  90.000          46.000           -4.580e+00          -2.122e+01             256.083          -4.675e+00              59.919           2.783e+01     
  90.000          47.000           -4.769e+00          -2.110e+01             254.983          -4.871e+00              60.250           2.831e+01     
  90.000          48.000           -4.962e+00          -2.097e+01             253.918          -5.072e+00              60.581           2.885e+01     
  90.000          49.000           -5.159e+00          -2.085e+01             252.886          -5.278e+00              60.913           2.946e+01     
  90.000          50.000           -5.361e+00          -2.074e+01             251.888          -5.488e+00              61.244           3.017e+01     
  90.000          51.000           -5.567e+00          -2.062e+01             250.922          -5.704e+00              61.575           3.097e+01     
  90.000          52.000           -5.777e+00          -2.051e+01             249.988          -5.926e+00              61.903           3.191e+01     
  90.000          53.000           -5.993e+00          -2.040e+01             249.085          -6.153e+00              62.230           3.303e+01     
  90.000          54.000           -6.213e+00          -2.030e+01             248.212          -6.386e+00              62.554           3.438e+01     
  90.000          55.000           -6.440e+00          -2.019e+01             247.369          -6.627e+00              62.876           3.606e+01     
  90.000          56.000           -6.671e+00          -2.009e+01             246.555          -6.874e+00              63.194           3.826e+01     
  90.000          57.000           -6.909e+00          -2.000e+01             245.770          -7.128e+00              63.508           4.000e+01     
  90.000          58.000           -7.153e+00          -1.990e+01             245.012          -7.390e+00              63.817           4.000e+01     
  90.000          59.000           -7.404e+00          -1.981e+01             244.283          -7.661e+00              64.122           4.000e+01     
  90.000          60.000           -7.662e+00          -1.973e+01             243.580          -7.941e+00              64.421           4.000e+01     
  90.000          61.000           -7.927e+00          -1.964e+01             242.904          -8.230e+00              64.714           4.000e+01     
  90.000          62.000           -8.200e+00          -1.956e+01             242.255          -8.530e+00              65.001           3.808e+01     
  90.000          63.000           -8.481e+00          -1.948e+01             241.631          -8.841e+00              65.282           3.528e+01     
  90.000          64.000           -8.771e+00          -1.941e+01             241.033          -9.163e+00              65.555           3.309e+01     
  90.000          65.000           -9.070e+00          -1.934e+01             240.460          -9.499e+00              65.820           3.128e+01     
  90.000          66.000           -9.379e+00          -1.927e+01             239.912          -9.849e+00              66.078           2.973e+01     
  90.000          67.000           -9.698e+00          -1.920e+01             239.388          -1.021e+01              66.328           2.836e+01     
  90.000          68.000           -1.003e+01          -1.914e+01             238.889          -1.060e+01              66.568           2.714e+01     
  90.000          69.000           -1.037e+01          -1.908e+01             238.413          -1.100e+01              66.800           2.604e+01     
  90.000          70.000           -1.072e+01          -1.902e+01             237.961          -1.142e+01              67.022           2.502e+01     
  90.000          71.000           -1.109e+01          -1.896e+01             237.533          -1.186e+01              67.234           2.408e+01     
  90.000          72.000           -1.147e+01          -1.891e+01             237.128          -1.233e+01              67.436           2.321e+01     
  90.000          73.000           -1.186e+01          -1.886e+01             236.746          -1.282e+01              67.627           2.240e+01     
  90.000          74.000           -1.226e+01          -1.882e+01             236.386          -1.335e+01              67.808           2.165e+01     
  90.000          75.000           -1.268e+01          -1.877e+01             236.049          -1.391e+01              67.976           2.094e+01     
  90.000          76.000           -1.312e+01          -1.873e+01             235.735          -1.451e+01              68.133           2.029e+01     
  90.000          77.000           -1.356e+01          -1.870e+01             235.443          -1.516e+01              68.278           1.970e+01     
  90.000          78.000           -1.402e+01          -1.866e+01             235.174          -1.586e+01              68.409           1.917e+01     
  90.000          79.000           -1.450e+01          -1.863e+01             234.926          -1.662e+01              68.526           1.871e+01     
  90.000          80.000           -1.498e+01          -1.860e+01             234.700          -1.745e+01              68.628           1.834e+01     
  90.000          81.000           -1.547e+01          -1.857e+01             234.496          -1.838e+01              68.714           1.808e+01     
  90.000          82.000           -1.595e+01          -1.855e+01             234.314          -1.942e+01              68.782           1.797e+01     
  90.000          83.000           -1.643e+01          -1.853e+01             234.153          -2.060e+01              68.828           1.806e+01     
  90.000          84.000           -1.690e+01          -1.851e+01             234.014          -2.197e+01              68.847           1.840e+01     
  90.000          85.000           -1.733e+01          -1.850e+01             233.897          -2.360e+01              68.830           1.912e+01     
  90.000          86.000           -1.771e+01          -1.848e+01             233.801          -2.561e+01              68.757           2.035e+01     
  90.000          87.000           -1.804e+01          -1.847e+01             233.726          -2.823e+01              68.582           2.240e+01     
  90.000          88.000           -1.828e+01          -1.847e+01             233.673          -3.200e+01              68.159           2.593e+01     
  90.000          89.000           -1.842e+01          -1.846e+01             233.641          -3.881e+01              66.642           3.339e+01     
  90.000          90.000           -1.846e+01          -1.846e+01             233.630          -5.284e+01             263.894           4.000e+01     
  90.000          91.000           -1.839e+01          -1.846e+01             233.641          -3.599e+01             251.519           2.792e+01     
  90.000          92.000           -1.821e+01          -1.847e+01             233.673          -3.060e+01             250.554           2.335e+01     
  90.000          93.000           -1.794e+01          -1.847e+01             233.727          -2.730e+01             250.176           2.078e+01     
  90.000          94.000           -1.759e+01          -1.848e+01             233.801          -2.491e+01             249.954           1.922e+01     
  90.000          95.000           -1.719e+01          -1.849e+01             233.898          -2.304e+01             249.790           1.828e+01     
  90.000          96.000           -1.674e+01          -1.851e+01             234.015          -2.151e+01             249.650           1.777e+01     
  90.000          97.000           -1.628e+01          -1.853e+01             234.155          -2.020e+01             249.520           1.757e+01     
  90.000          98.000           -1.579e+01          -1.855e+01             234.315          -1.907e+01             249.391           1.758e+01     
  90.000          99.000           -1.530e+01          -1.857e+01             234.498          -1.807e+01             249.259           1.777e+01     
  90.000         100.000           -1.482e+01          -1.860e+01             234.702          -1.718e+01             249.122           1.808e+01     
  90.000         101.000           -1.434e+01          -1.863e+01             234.928          -1.637e+01             248.978           1.848e+01     
  90.000         102.000           -1.387e+01          -1.866e+01             235.175          -1.563e+01             248.826           1.897e+01     
  90.000         103.000           -1.342e+01          -1.869e+01             235.445          -1.495e+01             248.666           1.952e+01     
  90.000         104.000           -1.297e+01          -1.873e+01             235.737          -1.432e+01             248.497           2.013e+01     
  90.000         105.000           -1.255e+01          -1.877e+01             236.052          -1.373e+01             248.319           2.079e+01     
  90.000         106.000           -1.213e+01          -1.881e+01             236.388          -1.318e+01             248.131           2.150e+01     
  90.000         107.000           -1.173e+01          -1.886e+01             236.748          -1.267e+01             247.935           2.225e+01     
  90.000         108.000           -1.134e+01          -1.891e+01             237.130          -1.218e+01             247.729           2.306e+01     
  90.000         109.000           -1.097e+01          -1.896e+01             237.535          -1.172e+01             247.515           2.393e+01     
  90.000         110.000           -1.061e+01          -1.901e+01             237.963          -1.129e+01             247.291           2.486e+01     
  90.000         111.000           -1.026e+01          -1.907e+01             238.415          -1.087e+01             247.059           2.586e+01     
  90.000         112.000           -9.925e+00          -1.913e+01             238.891          -1.048e+01             246.818           2.695e+01     
  90.000         113.000           -9.600e+00          -1.919e+01             239.390          -1.011e+01             246.568           2.815e+01     
  90.000         114.000           -9.285e+00          -1.926e+01             239.914          -9.746e+00             246.311           2.949e+01     
  90.000         115.000           -8.980e+00          -1.933e+01             240.462          -9.401e+00             246.046           3.100e+01     
  90.000         116.000           -8.685e+00          -1.940e+01             241.034          -9.070e+00             245.774           3.275e+01     
  90.000         117.000           -8.399e+00          -1.948e+01             241.632          -8.752e+00             245.494           3.486e+01     
  90.000         118.000           -8.121e+00          -1.955e+01             242.256          -8.445e+00             245.208           3.752e+01     
  90.000         119.000           -7.851e+00          -1.963e+01             242.905          -8.149e+00             244.915           4.000e+01     
  90.000         120.000           -7.589e+00          -1.972e+01             243.580          -7.864e+00             244.617           4.000e+01     
  90.000         121.000           -7.334e+00          -1.981e+01             244.282          -7.588e+00             244.312           4.000e+01     
  90.000         122.000           -7.087e+00          -1.990e+01             245.012          -7.320e+00             244.003           4.000e+01     
  90.000         123.000           -6.845e+00          -1.999e+01             245.768          -7.061e+00             243.689           4.000e+01     
  90.000         124.000           -6.610e+00          -2.008e+01             246.553          -6.810e+00             243.371           3.879e+01     
  90.000         125.000           -6.381e+00          -2.018e+01             247.366          -6.566e+00             243.048           3.645e+01     
  90.000         126.000           -6.157e+00          -2.029e+01             248.208          -6.328e+00             242.723           3.469e+01     
  90.000         127.000           -5.939e+00          -2.039e+01             249.080          -6.097e+00             242.395           3.329e+01     
  90.000         128.000           -5.726e+00          -2.050e+01             249.983          -5.873e+00             242.064           3.213e+01     
  90.000         129.000           -5.517e+00          -2.061e+01             250.916          -5.654e+00             241.731           3.116e+01     
  90.000         130.000           -5.313e+00          -2.072e+01             251.880          -5.440e+00             241.397           3.033e+01     
  90.000         131.000           -5.114e+00          -2.084e+01             252.877          -5.232e+00             241.062           2.961e+01     
  90.000         132.000           -4.919e+00          -2.096e+01             253.907          -5.028e+00             240.727           2.898e+01     
  90.000         133.000           -4.728e+00          -2.108e+01             254.971          -4.829e+00             240.392           2.843e+01     
  90.000         134.000           -4.540e+00          -2.121e+01             256.069          -4.635e+00             240.057           2.794e+01     
  90.000         135.000           -4.357e+00          -2.134e+01             257.203          -4.445e+00             239.724           2.750e+01     
  90.000         136.000           -4.177e+00          -2.147e+01             258.373          -4.259e+00             239.392           2.711e+01     
  90.000         137.000           -4.000e+00          -2.160e+01             259.580          -4.077e+00             239.062           2.677e+01     
  90.000         138.000           -3.827e+00          -2.174e+01             260.825          -3.898e+00             238.735           2.646e+01     
  90.000         139.000           -3.658e+00          -2.188e+01             262.109          -3.723e+00             238.410           2.618e+01     
  90.000         140.000           -3.491e+00          -2.202e+01             263.434          -3.552e+00             238.090           2.594e+01     
  90.000         141.000           -3.327e+00          -2.216e+01             264.799          -3.384e+00             237.773           2.572e+01     
  90.000         142.000           -3.167e+00          -2.231e+01             266.207          -3.220e+00             237.461           2.553e+01     
  90.000         143.000           -3.009e+00          -2.246e+01             267.657          -3.059e+00             237.153           2.536e+01     
  90.000         144.000           -2.854e+00          -2.261e+01             269.152          -2.901e+00             236.851           2.522e+01     
  90.000         145.000           -2.702e+00          -2.276e+01             270.693          -2.745e+00             236.554           2.509e+01     
  90.000         146.000           -2.553e+00          -2.291e+01             272.279          -2.593e+00             236.263           2.498e+01     
  90.000         147.000           -2.407e+00          -2.307e+01             273.913          -2.444e+00             235.979           2.490e+01     
  90.000         148.000           -2.263e+00          -2.322e+01             275.596          -2.298e+00             235.701           2.482e+01     
  90.000         149.000           -2.122e+00          -2.338e+01             277.328          -2.155e+00             235.431           2.477e+01     
  90.000         150.000           -1.983e+00          -2.354e+01             279.111          -2.014e+00             235.168           2.473e+01     
  90.000         151.000           -1.848e+00          -2.369e+01             280.945          -1.876e+00             234.912           2.470e+01     
  90.000         152.000           -1.715e+00          -2.385e+01             282.831          -1.741e+00             234.664           2.469e+01     
  90.000         153.000           -1.584e+00          -2.401e+01             284.771          -1.609e+00             234.425           2.469e+01     
  90.000         154.000           -1.456e+00          -2.416e+01             286.763          -1.479e+00             234.193           2.470e+01     
  90.000         155.000           -1.331e+00          -2.432e+01             288.810          -1.353e+00             233.970           2.473e+01     
  90.000         156.000           -1.208e+00          -2.447e+01             290.910          -1.229e+00             233.756           2.477e+01     
  90.000         157.000           -1.088e+00          -2.462e+01             293.065          -1.107e+00             233.551           2.482e+01     
  90.000         158.000           -9.705e-01          -2.477e+01             295.273          -9.886e-01             233.355           2.488e+01     
  90.000         159.000           -8.556e-01          -2.491e+01             297.535          -8.727e-01             233.167           2.495e+01     
  90.000         160.000           -7.435e-01          -2.505e+01             299.850          -7.596e-01             232.989           2.503e+01     
  90.000         161.000           -6.339e-01          -2.519e+01             302.216          -6.492e-01             232.821           2.512e+01     
  90.000         162.000           -5.271e-01          -2.532e+01             304.633          -5.415e-01             232.661           2.522e+01     
  90.000         163.000           -4.230e-01          -2.545e+01             307.097          -4.366e-01             232.511           2.533e+01     
  90.000         164.000           -3.216e-01          -2.557e+01             309.608          -3.345e-01             232.370           2.546e+01     
  90.000         165.000           -2.229e-01          -2.569e+01             312.163          -2.352e-01             232.239           2.559e+01     
  90.000         166.000           -1.270e-01          -2.580e+01             314.758          -1.388e-01             232.117           2.573e+01     
  90.000         167.000           -3.384e-02          -2.590e+01             317.391          -4.512e-02             232.005           2.588e+01     
  90.000         168.000            5.649e-02          -2.599e+01             320.058           4.568e-02             231.901           2.604e+01     
  90.000         169.000            1.440e-01          -2.608e+01             322.754           1.336e-01             231.807           2.621e+01     
  90.000         170.000            2.286e-01          -2.615e+01             325.476           2.186e-01             231.722           2.639e+01     
  90.000         171.000            3.104e-01          -2.622e+01             328.219           3.007e-01             231.646           2.658e+01     
  90.000         172.000            3.893e-01          -2.628e+01             330.979           3.799e-01             231.579           2.678e+01     
  90.000         173.000            4.652e-01          -2.633e+01             333.750           4.561e-01             231.521           2.699e+01     
  90.000         174.000            5.382e-01          -2.637e+01             336.528           5.293e-01             231.471           2.721e+01     
  90.000         175.000            6.082e-01          -2.640e+01             339.308           5.996e-01             231.430           2.744e+01     
  90.000         176.000            6.752e-01          -2.643e+01             342.085           6.667e-01             231.398           2.768e+01     
  90.000         177.000            7.392e-01          -2.644e+01             344.855           7.309e-01             231.373           2.793e+01     
  90.000         178.000            8.001e-01          -2.645e+01             347.613           7.920e-01             231.357           2.819e+01     
  90.000         179.000            8.580e-01          -2.645e+01             350.354           8.499e-01             231.349           2.847e+01     
  90.000         180.000            9.128e-01          -2.644e+01             353.077           9.048e-01             231.348           2.875e+01     
  90.000         181.000            9.644e-01          -2.642e+01             355.775           9.565e-01             231.355           2.906e+01     
  90.000         182.000            1.013e+00          -2.640e+01             358.446           1.005e+00             231.370           2.937e+01     
  90.000         183.000            1.058e+00          -2.637e+01               1.088           1.050e+00             231.391           2.970e+01     
  90.000         184.000            1.100e+00          -2.633e+01               3.697           1.092e+00             231.420           3.005e+01     
  90.000         185.000            1.139e+00          -2.629e+01               6.272           1.131e+00             231.455           3.041e+01     
  90.000         186.000            1.175e+00          -2.624e+01               8.811           1.167e+00             231.497           3.079e+01     
  90.000         187.000            1.207e+00          -2.619e+01              11.312           1.199e+00             231.545           3.119e+01     
  90.000         188.000            1.236e+00          -2.613e+01              13.774           1.228e+00             231.599           3.162e+01     
  90.000         189.000            1.262e+00          -2.607e+01              16.197           1.254e+00             231.660           3.206e+01     
  90.000         190.000            1.284e+00          -2.601e+01              18.580           1.276e+00             231.726           3.254e+01     
  90.000         191.000            1.303e+00          -2.594e+01              20.923           1.295e+00             231.797           3.304e+01     
  90.000         192.000            1.319e+00          -2.587e+01              23.225           1.310e+00             231.874           3.358e+01     
  90.000         193.000            1.331e+00          -2.580e+01              25.486           1.322e+00             231.956           3.415e+01     
  90.000         194.000            1.339e+00          -2.573e+01              27.707           1.331e+00             232.042           3.477e+01     
  90.000         195.000            1.344e+00          -2.565e+01              29.889           1.336e+00             232.134           3.544e+01     
  90.000         196.000            1.346e+00          -2.557e+01              32.031           1.337e+00             232.230           3.616e+01     
  90.000         197.000            1.344e+00          -2.550e+01              34.134           1.335e+00             232.330           3.696e+01     
  90.000         198.000            1.338e+00          -2.542e+01              36.200           1.329e+00             232.434           3.784e+01     
  90.000         199.000            1.329e+00          -2.534e+01              38.227           1.320e+00             232.542           3.882e+01     
  90.000         200.000            1.316e+00          -2.526e+01              40.219           1.307e+00             232.653           3.993e+01     
  90.000         201.000            1.300e+00          -2.518e+01              42.174           1.290e+00             232.768           4.000e+01     
  90.000         202.000            1.279e+00          -2.511e+01              44.093           1.269e+00             232.886           4.000e+01     
  90.000         203.000            1.255e+00          -2.503e+01              45.979           1.245e+00             233.007           4.000e+01     
  90.000         204.000            1.227e+00          -2.495e+01              47.830           1.216e+00             233.130           4.000e+01     
  90.000         205.000            1.195e+00          -2.487e+01              49.649           1.184e+00             233.257           4.000e+01     
  90.000         206.000            1.159e+00          -2.480e+01              51.435           1.148e+00             233.385           4.000e+01     
  90.000         207.000            1.119e+00          -2.472e+01              53.189           1.108e+00             233.516           4.000e+01     
  90.000         208.000            1.076e+00          -2.464e+01              54.912           1.064e+00             233.649           4.000e+01     
  90.000         209.000            1.028e+00          -2.457e+01              56.605           1.016e+00             233.784           4.000e+01     
  90.000         210.000            9.756e-01          -2.450e+01              58.267           9.633e-01             233.920           4.000e+01     
  90.000         211.000            9.194e-01          -2.442e+01              59.900           9.067e-01             234.058           4.000e+01     
  90.000         212.000            8.588e-01          -2.435e+01              61.504           8.457e-01             234.197           4.000e+01     
  90.000         213.000            7.939e-01          -2.428e+01              63.079           7.804e-01             234.337           4.000e+01     
  90.000         214.000            7.246e-01          -2.421e+01              64.626           7.106e-01             234.478           4.000e+01     
  90.000         215.000            6.507e-01          -2.414e+01              66.145           6.363e-01             234.619           3.879e+01     
  90.000         216.000            5.723e-01          -2.407e+01              67.636           5.574e-01             234.762           3.770e+01     
  90.000         217.000            4.892e-01          -2.400e+01              69.100           4.737e-01             234.904           3.672e+01     
  90.000         218.000            4.013e-01          -2.394e+01              70.537           3.853e-01             235.047           3.582e+01     
  90.000         219.000            3.085e-01          -2.387e+01              71.947           2.919e-01             235.190           3.500e+01     
  90.000         220.000            2.107e-01          -2.381e+01              73.331           1.935e-01             235.333           3.423e+01     
  90.000         221.000            1.079e-01          -2.375e+01              74.687           8.993e-02             235.476           3.352e+01     
  90.000         222.000           -2.687e-04          -2.368e+01              76.017          -1.891e-02             235.618           3.285e+01     
  90.000         223.000           -1.138e-01          -2.362e+01              77.321          -1.332e-01             235.760           3.222e+01     
  90.000         224.000           -2.328e-01          -2.356e+01              78.598          -2.530e-01             235.901           3.162e+01     
  90.000         225.000           -3.574e-01          -2.350e+01              79.849          -3.785e-01             236.041           3.104e+01     
  90.000         226.000           -4.880e-01          -2.345e+01              81.074          -5.100e-01             236.181           3.049e+01     
  90.000         227.000           -6.245e-01          -2.339e+01              82.273          -6.475e-01             236.319           2.996e+01     
  90.000         228.000           -7.672e-01          -2.333e+01              83.445          -7.913e-01             236.456           2.944e+01     
  90.000         229.000           -9.164e-01          -2.328e+01              84.591          -9.417e-01             236.592           2.894e+01     
  90.000         230.000           -1.072e+00          -2.323e+01              85.710          -1.099e+00             236.726           2.846e+01     
  90.000         231.000           -1.235e+00          -2.317e+01              86.804          -1.263e+00             236.859           2.799e+01     
  90.000         232.000           -1.405e+00          -2.312e+01              87.870          -1.434e+00             236.990           2.752e+01     
  90.000         233.000           -1.582e+00          -2.307e+01              88.910          -1.613e+00             237.119           2.707e+01     
  90.000         234.000           -1.767e+00          -2.302e+01              89.924          -1.799e+00             237.246           2.662e+01     
  90.000         235.000           -1.960e+00          -2.297e+01              90.911          -1.994e+00             237.371           2.618e+01     
  90.000         236.000           -2.161e+00          -2.293e+01              91.871          -2.198e+00             237.494           2.574e+01     
  90.000         237.000           -2.371e+00          -2.288e+01              92.804          -2.410e+00             237.615           2.531e+01     
  90.000         238.000           -2.591e+00          -2.284e+01              93.711          -2.632e+00             237.733           2.488e+01     
  90.000         239.000           -2.820e+00          -2.279e+01              94.590          -2.864e+00             237.849           2.445e+01     
  90.000         240.000           -3.059e+00          -2.275e+01              95.442          -3.106e+00             237.962           2.402e+01     
  90.000         241.000           -3.309e+00          -2.271e+01              96.268          -3.359e+00             238.073           2.359e+01     
  90.000         242.000           -3.571e+00          -2.267e+01              97.065          -3.624e+00             238.181           2.315e+01     
  90.000         243.000           -3.844e+00          -2.263e+01              97.836          -3.902e+00             238.286           2.272e+01     
  90.000         244.000           -4.131e+00          -2.259e+01              98.579          -4.193e+00             238.388           2.228e+01     
  90.000         245.000           -4.431e+00          -2.255e+01              99.295          -4.498e+00             238.487           2.183e+01     
  90.000         246.000           -4.745e+00          -2.252e+01              99.983          -4.819e+00             238.583           2.138e+01     
  90.000         247.000           -5.076e+00          -2.249e+01             100.643          -5.156e+00             238.676           2.091e+01     
  90.000         248.000           -5.423e+00          -2.245e+01             101.276          -5.510e+00             238.765           2.044e+01     
  90.000         249.000           -5.789e+00          -2.242e+01             101.881          -5.884e+00             238.852           1.996e+01     
  90.000         250.000           -6.174e+00          -2.239e+01             102.458          -6.279e+00             238.935           1.946e+01     
  90.000         251.000           -6.581e+00          -2.236e+01             103.007          -6.697e+00             239.014           1.895e+01     
  90.000         252.000           -7.011e+00          -2.234e+01             103.528          -7.141e+00             239.090           1.843e+01     
  90.000         253.000           -7.467e+00          -2.231e+01             104.021          -7.612e+00             239.163           1.788e+01     
  90.000         254.000           -7.952e+00          -2.228e+01             104.486          -8.115e+00             239.232           1.731e+01     
  90.000         255.000           -8.468e+00          -2.226e+01             104.924          -8.653e+00             239.298           1.671e+01     
  90.000         256.000           -9.019e+00          -2.224e+01             105.333          -9.231e+00             239.360           1.609e+01     
  90.000         257.000           -9.609e+00          -2.222e+01             105.713          -9.854e+00             239.419           1.543e+01     
  90.000         258.000           -1.024e+01          -2.220e+01             106.066          -1.053e+01             239.475           1.473e+01     
  90.000         259.000           -1.093e+01          -2.218e+01             106.390          -1.127e+01             239.527           1.399e+01     
  90.000         260.000           -1.167e+01          -2.217e+01             106.686          -1.208e+01             239.576           1.320e+01     
  90.000         261.000           -1.248e+01          -2.215e+01             106.954          -1.298e+01             239.622           1.235e+01     
  90.000         262.000           -1.336e+01          -2.214e+01             107.194          -1.398e+01             239.666           1.143e+01     
  90.000         263.000           -1.434e+01          -2.213e+01             107.405          -1.513e+01             239.708           1.045e+01     
  90.000         264.000           -1.541e+01          -2.212e+01             107.588          -1.645e+01             239.749           9.413e+00     
  90.000         265.000           -1.658e+01          -2.211e+01             107.743          -1.801e+01             239.792           8.355e+00     
  90.000         266.000           -1.787e+01          -2.210e+01             107.869          -1.993e+01             239.841           7.419e+00     
  90.000         267.000           -1.923e+01          -2.210e+01             107.967          -2.239e+01             239.905           7.023e+00     
  90.000         268.000           -2.057e+01          -2.209e+01             108.036          -2.585e+01             240.013           8.145e+00     
  90.000         269.000           -2.164e+01          -2.209e+01             108.078          -3.169e+01             240.305           1.266e+01     
  90.000         270.000           -2.209e+01          -2.209e+01             108.091          -5.938e+01             253.995           4.000e+01     
  90.000         271.000           -2.170e+01          -2.209e+01             108.075          -3.241e+01              59.094           1.313e+01     
  90.000         272.000           -2.067e+01          -2.209e+01             108.031          -2.621e+01              59.409           8.244e+00     
  90.000         273.000           -1.934e+01          -2.210e+01             107.959          -2.263e+01              59.502           6.960e+00     
  90.000         274.000           -1.798e+01          -2.210e+01             107.858          -2.010e+01              59.538           7.300e+00     
  90.000         275.000           -1.669e+01          -2.211e+01             107.729          -1.815e+01              59.550           8.228e+00     
  90.000         276.000           -1.550e+01          -2.212e+01             107.572          -1.657e+01              59.547           9.294e+00     
  90.000         277.000           -1.442e+01          -2.213e+01             107.387          -1.523e+01              59.534           1.034e+01     
  90.000         278.000           -1.344e+01          -2.214e+01             107.173          -1.407e+01              59.514           1.133e+01     
  90.000         279.000           -1.255e+01          -2.215e+01             106.931          -1.305e+01              59.487           1.226e+01     
  90.000         280.000           -1.173e+01          -2.216e+01             106.660          -1.215e+01              59.454           1.312e+01     
  90.000         281.000           -1.099e+01          -2.218e+01             106.362          -1.133e+01              59.416           1.391e+01     
  90.000         282.000           -1.030e+01          -2.220e+01             106.035          -1.059e+01              59.373           1.466e+01     
  90.000         283.000           -9.657e+00          -2.221e+01             105.680          -9.905e+00              59.325           1.537e+01     
  90.000         284.000           -9.063e+00          -2.223e+01             105.297          -9.278e+00              59.273           1.603e+01     
  90.000         285.000           -8.509e+00          -2.225e+01             104.886          -8.696e+00              59.216           1.666e+01     
  90.000         286.000           -7.990e+00          -2.228e+01             104.446          -8.155e+00              59.155           1.726e+01     
  90.000         287.000           -7.502e+00          -2.230e+01             103.979          -7.649e+00              59.090           1.783e+01     
  90.000         288.000           -7.044e+00          -2.233e+01             103.484          -7.175e+00              59.022           1.838e+01     
  90.000         289.000           -6.611e+00          -2.235e+01             102.961          -6.729e+00              58.949           1.891e+01     
  90.000         290.000           -6.203e+00          -2.238e+01             102.410          -6.308e+00              58.873           1.942e+01     
  90.000         291.000           -5.815e+00          -2.241e+01             101.831          -5.911e+00              58.793           1.992e+01     
  90.000         292.000           -5.448e+00          -2.244e+01             101.225          -5.536e+00              58.709           2.041e+01     
  90.000         293.000           -5.099e+00          -2.247e+01             100.590          -5.179e+00              58.622           2.088e+01     
  90.000         294.000           -4.767e+00          -2.251e+01              99.929          -4.841e+00              58.531           2.134e+01     
  90.000         295.000           -4.451e+00          -2.254e+01              99.239          -4.519e+00              58.437           2.180e+01     
  90.000         296.000           -4.149e+00          -2.258e+01              98.522          -4.212e+00              58.340           2.225e+01     
  90.000         297.000           -3.862e+00          -2.262e+01              97.778          -3.920e+00              58.240           2.269e+01     
  90.000         298.000           -3.587e+00          -2.265e+01              97.007          -3.641e+00              58.137           2.313e+01     
  90.000         299.000           -3.324e+00          -2.269e+01              96.208          -3.375e+00              58.030           2.356e+01     
  90.000         300.000           -3.073e+00          -2.273e+01              95.383          -3.120e+00              57.921           2.399e+01     
  90.000         301.000           -2.833e+00          -2.278e+01              94.530          -2.877e+00              57.809           2.442e+01     
  90.000         302.000           -2.603e+00          -2.282e+01              93.650          -2.644e+00              57.695           2.485e+01     
  90.000         303.000           -2.382e+00          -2.286e+01              92.744          -2.422e+00              57.578           2.529e+01     
  90.000         304.000           -2.171e+00          -2.291e+01              91.811          -2.208e+00              57.458           2.572e+01     
  90.000         305.000           -1.969e+00          -2.296e+01              90.851          -2.004e+00              57.337           2.616e+01     
  90.000         306.000           -1.775e+00          -2.300e+01              89.864          -1.808e+00              57.213           2.660e+01     
  90.000         307.000           -1.590e+00          -2.305e+01              88.851          -1.621e+00              57.087           2.705e+01     
  90.000         308.000           -1.412e+00          -2.310e+01              87.812          -1.441e+00              56.958           2.750e+01     
  90.000         309.000           -1.241e+00          -2.315e+01              86.747          -1.269e+00              56.829           2.797e+01     
  90.000         310.000           -1.078e+00          -2.320e+01              85.655          -1.105e+00              56.697           2.844e+01     
  90.000         311.000           -9.217e-01          -2.326e+01              84.537          -9.472e-01              56.563           2.892e+01     
  90.000         312.000           -7.720e-01          -2.331e+01              83.393          -7.963e-01              56.429           2.942e+01     
  90.000         313.000           -6.287e-01          -2.337e+01              82.223          -6.519e-01              56.292           2.994e+01     
  90.000         314.000           -4.916e-01          -2.342e+01              81.026          -5.138e-01              56.155           3.047e+01     
  90.000         315.000           -3.606e-01          -2.348e+01              79.804          -3.818e-01              56.016           3.102e+01     
  90.000         316.000           -2.355e-01          -2.354e+01              78.556          -2.558e-01              55.877           3.159e+01     
  90.000         317.000           -1.160e-01          -2.360e+01              77.282          -1.355e-01              55.737           3.220e+01     
  90.000         318.000           -2.061e-03          -2.366e+01              75.981          -2.082e-02              55.596           3.283e+01     
  90.000         319.000            1.065e-01          -2.372e+01              74.655           8.843e-02              55.454           3.350e+01     
  90.000         320.000            2.097e-01          -2.378e+01              73.302           1.924e-01              55.312           3.421e+01     
  90.000         321.000            3.079e-01          -2.384e+01              71.923           2.912e-01              55.170           3.497e+01     
  90.000         322.000            4.010e-01          -2.391e+01              70.518           3.849e-01              55.028           3.579e+01     
  90.000         323.000            4.892e-01          -2.397e+01              69.086           4.737e-01              54.885           3.668e+01     
  90.000         324.000            5.727e-01          -2.404e+01              67.627           5.576e-01              54.743           3.766e+01     
  90.000         325.000            6.514e-01          -2.411e+01              66.140           6.369e-01              54.602           3.875e+01     
  90.000         326.000            7.255e-01          -2.418e+01              64.627           7.115e-01              54.460           3.998e+01     
  90.000         327.000            7.951e-01          -2.425e+01              63.086           7.815e-01              54.320           4.000e+01     
  90.000         328.000            8.603e-01          -2.432e+01              61.517           8.471e-01              54.181           4.000e+01     
  90.000         329.000            9.210e-01          -2.439e+01              59.920           9.082e-01              54.042           4.000e+01     
  90.000         330.000            9.775e-01          -2.446e+01              58.293           9.651e-01              53.905           4.000e+01     
  90.000         331.000            1.030e+00          -2.454e+01              56.638           1.018e+00              53.769           4.000e+01     
  90.000         332.000            1.078e+00          -2.461e+01              54.953           1.066e+00              53.635           4.000e+01     
  90.000         333.000            1.122e+00          -2.469e+01              53.237           1.110e+00              53.502           4.000e+01     
  90.000         334.000            1.162e+00          -2.476e+01              51.490           1.151e+00              53.372           4.000e+01     
  90.000         335.000            1.198e+00          -2.484e+01              49.712           1.187e+00              53.243           4.000e+01     
  90.000         336.000            1.230e+00          -2.492e+01              47.902           1.219e+00              53.117           4.000e+01     
  90.000         337.000            1.258e+00          -2.499e+01              46.059           1.248e+00              52.994           4.000e+01     
  90.000         338.000            1.282e+00          -2.507e+01              44.182           1.272e+00              52.873           4.000e+01     
  90.000         339.000            1.302e+00          -2.515e+01              42.271           1.293e+00              52.755           4.000e+01     
  90.000         340.000            1.319e+00          -2.523e+01              40.325           1.310e+00              52.641           3.998e+01     
  90.000         341.000            1.332e+00          -2.531e+01              38.343           1.323e+00              52.529           3.886e+01     
  90.000         342.000            1.341e+00          -2.539e+01              36.324           1.332e+00              52.422           3.788e+01     
  90.000         343.000            1.347e+00          -2.547e+01              34.268           1.338e+00              52.317           3.700e+01     
  90.000         344.000            1.349e+00          -2.554e+01              32.174           1.340e+00              52.217           3.620e+01     
  90.000         345.000            1.347e+00          -2.562e+01              30.041           1.339e+00              52.121           3.547e+01     
  90.000         346.000            1.342e+00          -2.570e+01              27.869           1.334e+00              52.030           3.480e+01     
  90.000         347.000            1.334e+00          -2.577e+01              25.657           1.325e+00              51.943           3.418e+01     
  90.000         348.000            1.321e+00          -2.584e+01              23.404           1.313e+00              51.861           3.361e+01     
  90.000         349.000            1.306e+00          -2.591e+01              21.111           1.298e+00              51.784           3.307e+01     
  90.000         350.000            1.287e+00          -2.598e+01              18.777           1.279e+00              51.712           3.256e+01     
  90.000         351.000            1.264e+00          -2.605e+01              16.403           1.256e+00              51.645           3.209e+01     
  90.000         352.000            1.238e+00          -2.611e+01              13.988           1.230e+00              51.584           3.164e+01     
  90.000         353.000            1.209e+00          -2.617e+01              11.533           1.201e+00              51.529           3.122e+01     
  90.000         354.000            1.177e+00          -2.622e+01               9.039           1.169e+00              51.481           3.081e+01     
  90.000         355.000            1.141e+00          -2.627e+01               6.506           1.133e+00              51.438           3.043e+01     
  90.000         356.000            1.102e+00          -2.631e+01               3.937           1.094e+00              51.402           3.007e+01     
  90.000         357.000            1.060e+00          -2.635e+01               1.333           1.052e+00              51.373           2.972e+01     
  90.000         358.000            1.014e+00          -2.638e+01             358.696           1.006e+00              51.350           2.939e+01     
  90.000         359.000            9.654e-01          -2.641e+01             356.028           9.574e-01              51.335           2.907e+01     
