Theta [deg.]  Phi   [deg.]  Abs(Grlz)[dBi   ]   Abs(Theta)[dBi   ]  Phase(Theta)[deg.]  Abs(Phi  )[dBi   ]  Phase(Phi  )[deg.]  Ax.Ratio[dB    ]    
------------------------------------------------------------------------------------------------------------------------------------------------------
  90.000           0.000            5.680e-01          -3.273e+00             245.483          -1.745e+00              59.771           2.617e+01     
  90.000           1.000            6.234e-01          -3.379e+00             243.891          -1.580e+00              57.331           2.502e+01     
  90.000           2.000            7.045e-01          -3.480e+00             242.013          -1.383e+00              55.364           2.497e+01     
  90.000           3.000            8.030e-01          -3.575e+00             239.834          -1.169e+00              53.911           2.606e+01     
  90.000           4.000            9.114e-01          -3.664e+00             237.345          -9.509e-01              52.983           2.880e+01     
  90.000           5.000            1.023e+00          -3.745e+00             234.546          -7.392e-01              52.568           3.577e+01     
  90.000           6.000            1.134e+00          -3.816e+00             231.442          -5.397e-01              52.641           4.000e+01     
  90.000           7.000            1.242e+00          -3.876e+00             228.050          -3.550e-01              53.167           2.769e+01     
  90.000           8.000            1.347e+00          -3.923e+00             224.393          -1.848e-01              54.105           2.221e+01     
  90.000           9.000            1.449e+00          -3.957e+00             220.501          -2.653e-02              55.406           1.855e+01     
  90.000          10.000            1.551e+00          -3.976e+00             216.411           1.241e-01              57.016           1.580e+01     
  90.000          11.000            1.656e+00          -3.983e+00             212.162           2.722e-01              58.875           1.360e+01     
  90.000          12.000            1.767e+00          -3.979e+00             207.793           4.227e-01              60.910           1.178e+01     
  90.000          13.000            1.886e+00          -3.969e+00             203.342           5.800e-01              63.047           1.027e+01     
  90.000          14.000            2.013e+00          -3.956e+00             198.840           7.467e-01              65.205           9.019e+00     
  90.000          15.000            2.148e+00          -3.948e+00             194.311           9.235e-01              67.302           7.995e+00     
  90.000          16.000            2.289e+00          -3.949e+00             189.771           1.109e+00              69.263           7.194e+00     
  90.000          17.000            2.431e+00          -3.966e+00             185.224           1.300e+00              71.018           6.614e+00     
  90.000          18.000            2.570e+00          -4.008e+00             180.665           1.491e+00              72.510           6.252e+00     
  90.000          19.000            2.700e+00          -4.079e+00             176.079           1.677e+00              73.694           6.101e+00     
  90.000          20.000            2.816e+00          -4.186e+00             171.438           1.850e+00              74.536           6.140e+00     
  90.000          21.000            2.911e+00          -4.335e+00             166.707           2.004e+00              75.014           6.344e+00     
  90.000          22.000            2.980e+00          -4.529e+00             161.838           2.132e+00              75.114           6.683e+00     
  90.000          23.000            3.019e+00          -4.774e+00             156.772           2.229e+00              74.824           7.131e+00     
  90.000          24.000            3.022e+00          -5.069e+00             151.437           2.289e+00              74.137           7.666e+00     
  90.000          25.000            2.986e+00          -5.416e+00             145.746           2.309e+00              73.044           8.278e+00     
  90.000          26.000            2.911e+00          -5.810e+00             139.601           2.285e+00              71.531           8.960e+00     
  90.000          27.000            2.793e+00          -6.243e+00             132.888           2.214e+00              69.581           9.713e+00     
  90.000          28.000            2.635e+00          -6.701e+00             125.491           2.097e+00              67.166           1.054e+01     
  90.000          29.000            2.440e+00          -7.160e+00             117.300           1.936e+00              64.253           1.145e+01     
  90.000          30.000            2.214e+00          -7.586e+00             108.246           1.734e+00              60.800           1.246e+01     
  90.000          31.000            1.968e+00          -7.938e+00              98.338           1.499e+00              56.761           1.356e+01     
  90.000          32.000            1.716e+00          -8.170e+00              87.712           1.246e+00              52.095           1.477e+01     
  90.000          33.000            1.479e+00          -8.243e+00              76.637           9.900e-01              46.778           1.606e+01     
  90.000          34.000            1.282e+00          -8.144e+00              65.502           7.562e-01              40.821           1.738e+01     
  90.000          35.000            1.150e+00          -7.881e+00              54.684           5.701e-01              34.291           1.865e+01     
  90.000          36.000            1.103e+00          -7.488e+00              44.476           4.566e-01              27.331           1.976e+01     
  90.000          37.000            1.154e+00          -7.006e+00              35.033           4.335e-01              20.156           2.061e+01     
  90.000          38.000            1.299e+00          -6.476e+00              26.384           5.058e-01              13.023           2.123e+01     
  90.000          39.000            1.524e+00          -5.929e+00              18.477           6.632e-01               6.191           2.170e+01     
  90.000          40.000            1.803e+00          -5.386e+00              11.220           8.827e-01             359.867           2.217e+01     
  90.000          41.000            2.108e+00          -4.861e+00               4.514           1.134e+00             354.184           2.283e+01     
  90.000          42.000            2.412e+00          -4.360e+00             358.271           1.386e+00             349.199           2.381e+01     
  90.000          43.000            2.690e+00          -3.883e+00             352.417           1.611e+00             344.910           2.531e+01     
  90.000          44.000            2.926e+00          -3.432e+00             346.898           1.783e+00             341.278           2.767e+01     
  90.000          45.000            3.104e+00          -3.004e+00             341.678           1.884e+00             338.242           3.177e+01     
  90.000          46.000            3.218e+00          -2.596e+00             336.734           1.897e+00             335.738           4.000e+01     
  90.000          47.000            3.261e+00          -2.207e+00             332.056           1.810e+00             333.700           3.776e+01     
  90.000          48.000            3.230e+00          -1.835e+00             327.644           1.609e+00             332.064           2.894e+01     
  90.000          49.000            3.127e+00          -1.479e+00             323.500           1.282e+00             330.773           2.437e+01     
  90.000          50.000            2.955e+00          -1.141e+00             319.631           8.130e-01             329.769           2.126e+01     
  90.000          51.000            2.721e+00          -8.202e-01             316.041           1.839e-01             328.991           1.896e+01     
  90.000          52.000            2.436e+00          -5.189e-01             312.735          -6.308e-01             328.369           1.725e+01     
  90.000          53.000            2.115e+00          -2.387e-01             309.714          -1.668e+00             327.807           1.608e+01     
  90.000          54.000            1.782e+00           1.806e-02             306.976          -2.983e+00             327.160           1.553e+01     
  90.000          55.000            1.463e+00           2.493e-01             304.516          -4.666e+00             326.160           1.578e+01     
  90.000          56.000            1.190e+00           4.530e-01             302.326          -6.875e+00             324.239           1.720e+01     
  90.000          57.000            9.944e-01           6.272e-01             300.395          -9.916e+00             319.886           2.074e+01     
  90.000          58.000            9.001e-01           7.702e-01             298.711          -1.441e+01             307.592           3.166e+01     
  90.000          59.000            9.187e-01           8.806e-01             297.261          -1.967e+01             261.762           2.532e+01     
  90.000          60.000            1.046e+00           9.572e-01             296.028          -1.589e+01             203.399           1.685e+01     
  90.000          61.000            1.265e+00           9.990e-01             294.999          -1.100e+01             187.252           1.248e+01     
  90.000          62.000            1.550e+00           1.005e+00             294.158          -7.737e+00             182.746           9.536e+00     
  90.000          63.000            1.875e+00           9.753e-01             293.489          -5.404e+00             181.805           7.348e+00     
  90.000          64.000            2.218e+00           9.085e-01             292.977          -3.628e+00             182.412           5.625e+00     
  90.000          65.000            2.560e+00           8.045e-01             292.608          -2.222e+00             183.845           4.229e+00     
  90.000          66.000            2.889e+00           6.632e-01             292.369          -1.079e+00             185.773           3.104e+00     
  90.000          67.000            3.197e+00           4.838e-01             292.247          -1.321e-01             188.017           2.267e+00     
  90.000          68.000            3.477e+00           2.662e-01             292.230           6.593e-01             190.459           1.840e+00     
  90.000          69.000            3.727e+00           1.018e-02             292.306           1.324e+00             193.017           1.934e+00     
  90.000          70.000            3.941e+00          -2.845e-01             292.466           1.880e+00             195.629           2.405e+00     
  90.000          71.000            4.119e+00          -6.181e-01             292.700           2.340e+00             198.243           3.038e+00     
  90.000          72.000            4.255e+00          -9.905e-01             293.001           2.713e+00             200.820           3.719e+00     
  90.000          73.000            4.346e+00          -1.402e+00             293.362           3.002e+00             203.326           4.403e+00     
  90.000          74.000            4.388e+00          -1.851e+00             293.777           3.209e+00             205.735           5.069e+00     
  90.000          75.000            4.374e+00          -2.338e+00             294.243           3.333e+00             208.028           5.704e+00     
  90.000          76.000            4.299e+00          -2.861e+00             294.755           3.372e+00             210.188           6.297e+00     
  90.000          77.000            4.156e+00          -3.419e+00             295.311           3.321e+00             212.207           6.837e+00     
  90.000          78.000            3.935e+00          -4.008e+00             295.908           3.175e+00             214.077           7.312e+00     
  90.000          79.000            3.628e+00          -4.624e+00             296.546           2.924e+00             215.795           7.709e+00     
  90.000          80.000            3.222e+00          -5.261e+00             297.222           2.558e+00             217.359           8.008e+00     
  90.000          81.000            2.704e+00          -5.912e+00             297.932           2.062e+00             218.770           8.187e+00     
  90.000          82.000            2.056e+00          -6.566e+00             298.669           1.414e+00             220.030           8.215e+00     
  90.000          83.000            1.255e+00          -7.210e+00             299.424           5.877e-01             221.143           8.051e+00     
  90.000          84.000            2.710e-01          -7.830e+00             300.179          -4.597e-01             222.114           7.642e+00     
  90.000          85.000           -9.356e-01          -8.406e+00             300.912          -1.792e+00             222.950           6.910e+00     
  90.000          86.000           -2.418e+00          -8.917e+00             301.591          -3.518e+00             223.663           5.742e+00     
  90.000          87.000           -4.236e+00          -9.344e+00             302.181          -5.838e+00             224.276           3.985e+00     
  90.000          88.000           -6.416e+00          -9.664e+00             302.640          -9.201e+00             224.857           1.924e+00     
  90.000          89.000           -8.704e+00          -9.862e+00             302.934          -1.501e+01             225.723           5.545e+00     
  90.000          90.000           -9.924e+00          -9.926e+00             303.038          -4.298e+01             259.771           3.634e+01     
  90.000          91.000           -8.824e+00          -9.852e+00             302.942          -1.559e+01              43.028           5.965e+00     
  90.000          92.000           -6.552e+00          -9.645e+00             302.658          -9.480e+00              43.549           1.669e+00     
  90.000          93.000           -4.348e+00          -9.317e+00             302.211          -6.014e+00              43.448           3.740e+00     
  90.000          94.000           -2.503e+00          -8.884e+00             301.636          -3.639e+00              43.088           5.561e+00     
  90.000          95.000           -9.980e-01          -8.366e+00             300.974          -1.877e+00              42.539           6.766e+00     
  90.000          96.000            2.279e-01          -7.786e+00             300.262          -5.189e-01              41.823           7.524e+00     
  90.000          97.000            1.228e+00          -7.163e+00             299.530           5.486e-01              40.948           7.954e+00     
  90.000          98.000            2.043e+00          -6.516e+00             298.801           1.392e+00              39.916           8.134e+00     
  90.000          99.000            2.704e+00          -5.861e+00             298.090           2.053e+00              38.729           8.121e+00     
  90.000         100.000            3.233e+00          -5.210e+00             297.408           2.562e+00              37.385           7.956e+00     
  90.000         101.000            3.649e+00          -4.573e+00             296.760           2.940e+00              35.885           7.670e+00     
  90.000         102.000            3.964e+00          -3.958e+00             296.152           3.200e+00              34.230           7.285e+00     
  90.000         103.000            4.193e+00          -3.370e+00             295.584           3.356e+00              32.421           6.821e+00     
  90.000         104.000            4.343e+00          -2.815e+00             295.058           3.414e+00              30.463           6.292e+00     
  90.000         105.000            4.423e+00          -2.293e+00             294.577           3.383e+00              28.364           5.709e+00     
  90.000         106.000            4.441e+00          -1.809e+00             294.143           3.265e+00              26.132           5.084e+00     
  90.000         107.000            4.403e+00          -1.362e+00             293.760           3.064e+00              23.783           4.426e+00     
  90.000         108.000            4.313e+00          -9.536e-01             293.431           2.781e+00              21.337           3.749e+00     
  90.000         109.000            4.178e+00          -5.843e-01             293.163           2.413e+00              18.818           3.072e+00     
  90.000         110.000            4.001e+00          -2.540e-01             292.962           1.957e+00              16.259           2.439e+00     
  90.000         111.000            3.785e+00           3.724e-02             292.836           1.406e+00              13.700           1.955e+00     
  90.000         112.000            3.534e+00           2.897e-01             292.794           7.459e-01              11.189           1.830e+00     
  90.000         113.000            3.251e+00           5.035e-01             292.846          -3.990e-02               8.789           2.222e+00     
  90.000         114.000            2.939e+00           6.791e-01             293.003          -9.792e-01               6.581           3.033e+00     
  90.000         115.000            2.605e+00           8.166e-01             293.277          -2.113e+00               4.680           4.139e+00     
  90.000         116.000            2.256e+00           9.166e-01             293.683          -3.504e+00               3.262           5.513e+00     
  90.000         117.000            1.906e+00           9.795e-01             294.232          -5.256e+00               2.651           7.208e+00     
  90.000         118.000            1.573e+00           1.006e+00             294.939          -7.550e+00               3.541           9.357e+00     
  90.000         119.000            1.278e+00           9.958e-01             295.819          -1.074e+01               7.837           1.223e+01     
  90.000         120.000            1.048e+00           9.504e-01             296.888          -1.548e+01              22.934           1.646e+01     
  90.000         121.000            9.093e-01           8.705e-01             298.162          -1.961e+01              78.044           2.434e+01     
  90.000         122.000            8.800e-01           7.571e-01             299.654          -1.466e+01             126.638           3.397e+01     
  90.000         123.000            9.656e-01           6.115e-01             301.381          -1.010e+01             139.962           2.129e+01     
  90.000         124.000            1.155e+00           4.351e-01             303.356          -7.002e+00             144.636           1.753e+01     
  90.000         125.000            1.426e+00           2.296e-01             305.591          -4.758e+00             146.692           1.604e+01     
  90.000         126.000            1.745e+00          -2.913e-03             308.096          -3.051e+00             147.759           1.578e+01     
  90.000         127.000            2.082e+00          -2.604e-01             310.880          -1.717e+00             148.442           1.635e+01     
  90.000         128.000            2.408e+00          -5.407e-01             313.946          -6.642e-01             149.022           1.757e+01     
  90.000         129.000            2.701e+00          -8.418e-01             317.297           1.648e-01             149.652           1.937e+01     
  90.000         130.000            2.944e+00          -1.162e+00             320.931           8.075e-01             150.428           2.183e+01     
  90.000         131.000            3.126e+00          -1.499e+00             324.843           1.289e+00             151.425           2.525e+01     
  90.000         132.000            3.239e+00          -1.853e+00             329.029           1.630e+00             152.702           3.056e+01     
  90.000         133.000            3.281e+00          -2.223e+00             333.482           1.844e+00             154.315           4.000e+01     
  90.000         134.000            3.250e+00          -2.611e+00             338.202           1.946e+00             156.322           3.684e+01     
  90.000         135.000            3.149e+00          -3.017e+00             343.190           1.947e+00             158.784           2.965e+01     
  90.000         136.000            2.983e+00          -3.444e+00             348.458           1.860e+00             161.763           2.619e+01     
  90.000         137.000            2.760e+00          -3.893e+00             354.031           1.702e+00             165.322           2.407e+01     
  90.000         138.000            2.493e+00          -4.368e+00             359.947           1.491e+00             169.518           2.266e+01     
  90.000         139.000            2.200e+00          -4.867e+00               6.264           1.250e+00             174.389           2.169e+01     
  90.000         140.000            1.903e+00          -5.388e+00              13.057           1.006e+00             179.940           2.100e+01     
  90.000         141.000            1.629e+00          -5.924e+00              20.415           7.897e-01             186.120           2.046e+01     
  90.000         142.000            1.405e+00          -6.461e+00              28.437           6.293e-01             192.807           1.994e+01     
  90.000         143.000            1.255e+00          -6.976e+00              37.205           5.482e-01             199.808           1.932e+01     
  90.000         144.000            1.198e+00          -7.435e+00              46.758           5.575e-01             206.881           1.852e+01     
  90.000         145.000            1.234e+00          -7.799e+00              57.046           6.545e-01             213.777           1.753e+01     
  90.000         146.000            1.356e+00          -8.026e+00              67.889           8.235e-01             220.281           1.640e+01     
  90.000         147.000            1.542e+00          -8.090e+00              78.977           1.042e+00             226.247           1.522e+01     
  90.000         148.000            1.770e+00          -7.983e+00              89.933           1.284e+00             231.597           1.405e+01     
  90.000         149.000            2.014e+00          -7.727e+00             100.389           1.527e+00             236.312           1.295e+01     
  90.000         150.000            2.256e+00          -7.361e+00             110.102           1.754e+00             240.408           1.193e+01     
  90.000         151.000            2.479e+00          -6.928e+00             118.963           1.950e+00             243.921           1.100e+01     
  90.000         152.000            2.671e+00          -6.470e+00             126.979           2.107e+00             246.893           1.015e+01     
  90.000         153.000            2.828e+00          -6.018e+00             134.226           2.221e+00             249.364           9.366e+00     
  90.000         154.000            2.943e+00          -5.594e+00             140.815           2.288e+00             251.366           8.654e+00     
  90.000         155.000            3.017e+00          -5.211e+00             146.860           2.310e+00             252.926           8.006e+00     
  90.000         156.000            3.050e+00          -4.876e+00             152.471           2.287e+00             254.061           7.424e+00     
  90.000         157.000            3.043e+00          -4.593e+00             157.745           2.222e+00             254.784           6.915e+00     
  90.000         158.000            3.000e+00          -4.362e+00             162.764           2.119e+00             255.103           6.492e+00     
  90.000         159.000            2.925e+00          -4.180e+00             167.598           1.984e+00             255.026           6.178e+00     
  90.000         160.000            2.822e+00          -4.044e+00             172.305           1.821e+00             254.561           5.999e+00     
  90.000         161.000            2.697e+00          -3.949e+00             176.930           1.637e+00             253.722           5.986e+00     
  90.000         162.000            2.555e+00          -3.891e+00             181.510           1.439e+00             252.530           6.168e+00     
  90.000         163.000            2.404e+00          -3.862e+00             186.068           1.234e+00             251.015           6.563e+00     
  90.000         164.000            2.249e+00          -3.856e+00             190.621           1.027e+00             249.223           7.180e+00     
  90.000         165.000            2.095e+00          -3.866e+00             195.173           8.253e-01             247.209           8.024e+00     
  90.000         166.000            1.946e+00          -3.886e+00             199.717           6.320e-01             245.044           9.099e+00     
  90.000         167.000            1.806e+00          -3.909e+00             204.238           4.491e-01             242.806           1.042e+01     
  90.000         168.000            1.674e+00          -3.929e+00             208.709           2.764e-01             240.580           1.202e+01     
  90.000         169.000            1.552e+00          -3.941e+00             213.098           1.116e-01             238.451           1.396e+01     
  90.000         170.000            1.437e+00          -3.942e+00             217.364          -4.946e-02             236.500           1.635e+01     
  90.000         171.000            1.326e+00          -3.929e+00             221.468          -2.119e-01             234.804           1.944e+01     
  90.000         172.000            1.216e+00          -3.902e+00             225.367          -3.809e-01             233.430           2.374e+01     
  90.000         173.000            1.106e+00          -3.861e+00             229.025          -5.610e-01             232.438           3.113e+01     
  90.000         174.000            9.926e-01          -3.806e+00             232.409          -7.549e-01             231.882           4.000e+01     
  90.000         175.000            8.775e-01          -3.739e+00             235.495          -9.630e-01             231.809           3.029e+01     
  90.000         176.000            7.629e-01          -3.662e+00             238.268          -1.182e+00             232.259           2.595e+01     
  90.000         177.000            6.532e-01          -3.576e+00             240.720          -1.406e+00             233.260           2.399e+01     
  90.000         178.000            5.551e-01          -3.484e+00             242.852          -1.624e+00             234.829           2.328e+01     
  90.000         179.000            4.769e-01          -3.386e+00             244.675          -1.821e+00             236.954           2.356e+01     
  90.000         180.000            4.274e-01          -3.282e+00             246.204          -1.981e+00             239.589           2.486e+01     
  90.000         181.000            4.152e-01          -3.173e+00             247.463          -2.085e+00             242.645           2.759e+01     
  90.000         182.000            4.466e-01          -3.058e+00             248.481          -2.120e+00             245.988           3.330e+01     
  90.000         183.000            5.245e-01          -2.937e+00             249.291          -2.077e+00             249.451           4.000e+01     
  90.000         184.000            6.481e-01          -2.810e+00             249.930          -1.957e+00             252.851           3.191e+01     
  90.000         185.000            8.124e-01          -2.676e+00             250.437          -1.767e+00             256.022           2.628e+01     
  90.000         186.000            1.009e+00          -2.536e+00             250.854          -1.525e+00             258.832           2.319e+01     
  90.000         187.000            1.228e+00          -2.391e+00             251.221          -1.249e+00             261.195           2.126e+01     
  90.000         188.000            1.457e+00          -2.240e+00             251.575          -9.596e-01             263.075           2.004e+01     
  90.000         189.000            1.686e+00          -2.086e+00             251.954          -6.762e-01             264.468           1.932e+01     
  90.000         190.000            1.904e+00          -1.930e+00             252.388          -4.147e-01             265.399           1.899e+01     
  90.000         191.000            2.101e+00          -1.775e+00             252.906          -1.886e-01             265.906           1.901e+01     
  90.000         192.000            2.270e+00          -1.621e+00             253.529          -8.848e-03             266.030           1.936e+01     
  90.000         193.000            2.404e+00          -1.472e+00             254.276           1.152e-01             265.815           2.006e+01     
  90.000         194.000            2.498e+00          -1.330e+00             255.158           1.758e-01             265.298           2.117e+01     
  90.000         195.000            2.549e+00          -1.196e+00             256.183           1.658e-01             264.511           2.286e+01     
  90.000         196.000            2.552e+00          -1.072e+00             257.356           7.829e-02             263.474           2.552e+01     
  90.000         197.000            2.505e+00          -9.598e-01             258.677          -9.377e-02             262.198           3.029e+01     
  90.000         198.000            2.408e+00          -8.615e-01             260.142          -3.580e-01             260.681           4.000e+01     
  90.000         199.000            2.260e+00          -7.783e-01             261.747          -7.231e-01             258.903           3.210e+01     
  90.000         200.000            2.062e+00          -7.116e-01             263.484          -1.199e+00             256.826           2.472e+01     
  90.000         201.000            1.817e+00          -6.629e-01             265.345          -1.797e+00             254.379           2.043e+01     
  90.000         202.000            1.531e+00          -6.335e-01             267.322          -2.532e+00             251.449           1.733e+01     
  90.000         203.000            1.210e+00          -6.251e-01             269.404          -3.417e+00             247.858           1.489e+01     
  90.000         204.000            8.654e-01          -6.392e-01             271.582          -4.469e+00             243.320           1.290e+01     
  90.000         205.000            5.119e-01          -6.772e-01             273.849          -5.695e+00             237.383           1.129e+01     
  90.000         206.000            1.666e-01          -7.410e-01             276.197          -7.078e+00             229.339           1.008e+01     
  90.000         207.000           -1.509e-01          -8.322e-01             278.619          -8.531e+00             218.181           9.310e+00     
  90.000         208.000           -4.213e-01          -9.528e-01             281.111          -9.807e+00             202.934           9.094e+00     
  90.000         209.000           -6.286e-01          -1.105e+00             283.669          -1.047e+01             184.028           9.518e+00     
  90.000         210.000           -7.640e-01          -1.289e+00             286.292          -1.020e+01             164.682           1.063e+01     
  90.000         211.000           -8.274e-01          -1.509e+00             288.980          -9.207e+00             148.595           1.249e+01     
  90.000         212.000           -8.280e-01          -1.765e+00             291.733          -7.947e+00             136.809           1.526e+01     
  90.000         213.000           -7.819e-01          -2.060e+00             294.554          -6.717e+00             128.505           1.947e+01     
  90.000         214.000           -7.082e-01          -2.396e+00             297.445          -5.630e+00             122.619           2.749e+01     
  90.000         215.000           -6.265e-01          -2.773e+00             300.410          -4.716e+00             118.355           3.514e+01     
  90.000         216.000           -5.541e-01          -3.194e+00             303.453          -3.969e+00             115.191           2.286e+01     
  90.000         217.000           -5.051e-01          -3.661e+00             306.577          -3.374e+00             112.787           1.835e+01     
  90.000         218.000           -4.904e-01          -4.176e+00             309.784          -2.917e+00             110.917           1.569e+01     
  90.000         219.000           -5.174e-01          -4.740e+00             313.076          -2.581e+00             109.422           1.387e+01     
  90.000         220.000           -5.912e-01          -5.357e+00             316.449          -2.355e+00             108.186           1.255e+01     
  90.000         221.000           -7.146e-01          -6.029e+00             319.901          -2.227e+00             107.117           1.157e+01     
  90.000         222.000           -8.889e-01          -6.761e+00             323.423          -2.189e+00             106.139           1.084e+01     
  90.000         223.000           -1.114e+00          -7.558e+00             327.001          -2.231e+00             105.187           1.031e+01     
  90.000         224.000           -1.388e+00          -8.428e+00             330.617          -2.345e+00             104.199           9.962e+00     
  90.000         225.000           -1.710e+00          -9.381e+00             334.244          -2.524e+00             103.121           9.794e+00     
  90.000         226.000           -2.075e+00          -1.043e+01             337.846          -2.760e+00             101.898           9.813e+00     
  90.000         227.000           -2.478e+00          -1.160e+01             341.370          -3.046e+00             100.485           1.004e+01     
  90.000         228.000           -2.914e+00          -1.291e+01             344.747          -3.372e+00              98.833           1.051e+01     
  90.000         229.000           -3.375e+00          -1.442e+01             347.865          -3.730e+00              96.909           1.126e+01     
  90.000         230.000           -3.850e+00          -1.618e+01             350.540          -4.111e+00              94.691           1.237e+01     
  90.000         231.000           -4.329e+00          -1.832e+01             352.419          -4.505e+00              92.171           1.395e+01     
  90.000         232.000           -4.799e+00          -2.103e+01             352.720          -4.904e+00              89.369           1.619e+01     
  90.000         233.000           -5.249e+00          -2.472e+01             349.139          -5.299e+00              86.320           1.949e+01     
  90.000         234.000           -5.672e+00          -3.011e+01             331.995          -5.687e+00              83.083           2.503e+01     
  90.000         235.000           -6.061e+00          -3.318e+01             270.378          -6.069e+00              79.734           4.000e+01     
  90.000         236.000           -6.420e+00          -2.781e+01             232.269          -6.451e+00              76.354           2.920e+01     
  90.000         237.000           -6.757e+00          -2.373e+01             223.460          -6.845e+00              73.023           2.315e+01     
  90.000         238.000           -7.088e+00          -2.099e+01             221.525          -7.269e+00              69.804           2.050e+01     
  90.000         239.000           -7.434e+00          -1.903e+01             221.814          -7.745e+00              66.738           1.931e+01     
  90.000         240.000           -7.817e+00          -1.756e+01             222.999          -8.304e+00              63.839           1.910e+01     
  90.000         241.000           -8.262e+00          -1.643e+01             224.566          -8.981e+00              61.089           1.971e+01     
  90.000         242.000           -8.792e+00          -1.555e+01             226.271          -9.820e+00              58.431           2.125e+01     
  90.000         243.000           -9.428e+00          -1.489e+01             227.977          -1.088e+01              55.755           2.425e+01     
  90.000         244.000           -1.018e+01          -1.440e+01             229.595          -1.225e+01              52.861           3.116e+01     
  90.000         245.000           -1.106e+01          -1.406e+01             231.057          -1.408e+01              49.343           3.650e+01     
  90.000         246.000           -1.201e+01          -1.386e+01             232.306          -1.661e+01              44.195           2.342e+01     
  90.000         247.000           -1.294e+01          -1.380e+01             233.279          -2.038e+01              34.211           1.788e+01     
  90.000         248.000           -1.361e+01          -1.386e+01             233.908          -2.615e+01               3.418           1.475e+01     
  90.000         249.000           -1.376e+01          -1.405e+01             234.107          -2.572e+01             288.941           1.362e+01     
  90.000         250.000           -1.327e+01          -1.436e+01             233.768          -1.979e+01             260.408           1.426e+01     
  90.000         251.000           -1.229e+01          -1.480e+01             232.746          -1.587e+01             251.319           1.580e+01     
  90.000         252.000           -1.112e+01          -1.535e+01             230.847          -1.318e+01             247.035           1.722e+01     
  90.000         253.000           -9.959e+00          -1.601e+01             227.814          -1.120e+01             244.557           1.796e+01     
  90.000         254.000           -8.916e+00          -1.674e+01             223.321          -9.699e+00             242.953           1.795e+01     
  90.000         255.000           -8.031e+00          -1.750e+01             217.005          -8.551e+00             241.839           1.737e+01     
  90.000         256.000           -7.313e+00          -1.818e+01             208.598          -7.683e+00             241.029           1.646e+01     
  90.000         257.000           -6.761e+00          -1.863e+01             198.213          -7.053e+00             240.418           1.537e+01     
  90.000         258.000           -6.373e+00          -1.871e+01             186.642          -6.634e+00             239.939           1.419e+01     
  90.000         259.000           -6.145e+00          -1.837e+01             175.243          -6.413e+00             239.552           1.297e+01     
  90.000         260.000           -6.075e+00          -1.770e+01             165.233          -6.384e+00             239.225           1.171e+01     
  90.000         261.000           -6.163e+00          -1.685e+01             157.159          -6.550e+00             238.931           1.041e+01     
  90.000         262.000           -6.411e+00          -1.597e+01             150.969          -6.921e+00             238.648           9.058e+00     
  90.000         263.000           -6.825e+00          -1.513e+01             146.346          -7.519e+00             238.349           7.621e+00     
  90.000         264.000           -7.408e+00          -1.439e+01             142.940          -8.380e+00             238.005           6.063e+00     
  90.000         265.000           -8.161e+00          -1.375e+01             140.459          -9.563e+00             237.565           4.335e+00     
  90.000         266.000           -9.074e+00          -1.324e+01             138.684          -1.117e+01             236.941           2.420e+00     
  90.000         267.000           -1.011e+01          -1.284e+01             137.461          -1.341e+01             235.934           1.411e+00     
  90.000         268.000           -1.115e+01          -1.257e+01             136.682          -1.672e+01             233.960           4.307e+00     
  90.000         269.000           -1.200e+01          -1.241e+01             136.282          -2.244e+01             228.221           1.004e+01     
  90.000         270.000           -1.235e+01          -1.237e+01             136.224          -3.628e+01             153.785           3.435e+01     
  90.000         271.000           -1.205e+01          -1.245e+01             136.501          -2.269e+01              71.895           1.129e+01     
  90.000         272.000           -1.125e+01          -1.264e+01             137.131          -1.687e+01              65.920           5.187e+00     
  90.000         273.000           -1.022e+01          -1.296e+01             138.159          -1.353e+01              63.918           2.489e+00     
  90.000         274.000           -9.203e+00          -1.339e+01             139.667          -1.129e+01              62.928           2.934e+00     
  90.000         275.000           -8.298e+00          -1.395e+01             141.777          -9.680e+00              62.349           4.583e+00     
  90.000         276.000           -7.552e+00          -1.462e+01             144.667          -8.502e+00              61.984           6.235e+00     
  90.000         277.000           -6.977e+00          -1.540e+01             148.586          -7.651e+00              61.750           7.771e+00     
  90.000         278.000           -6.572e+00          -1.627e+01             153.854          -7.065e+00              61.610           9.210e+00     
  90.000         279.000           -6.332e+00          -1.715e+01             160.833          -6.707e+00              61.548           1.058e+01     
  90.000         280.000           -6.253e+00          -1.795e+01             169.788          -6.557e+00              61.560           1.191e+01     
  90.000         281.000           -6.333e+00          -1.852e+01             180.592          -6.604e+00              61.650           1.321e+01     
  90.000         282.000           -6.572e+00          -1.871e+01             192.420          -6.846e+00              61.831           1.450e+01     
  90.000         283.000           -6.970e+00          -1.848e+01             203.892          -7.288e+00              62.125           1.576e+01     
  90.000         284.000           -7.530e+00          -1.791e+01             213.773          -7.947e+00              62.565           1.697e+01     
  90.000         285.000           -8.254e+00          -1.718e+01             221.542          -8.849e+00              63.211           1.804e+01     
  90.000         286.000           -9.139e+00          -1.641e+01             227.276          -1.004e+01              64.158           1.880e+01     
  90.000         287.000           -1.017e+01          -1.569e+01             231.309          -1.160e+01              65.589           1.900e+01     
  90.000         288.000           -1.130e+01          -1.506e+01             234.007          -1.367e+01              67.881           1.841e+01     
  90.000         289.000           -1.241e+01          -1.455e+01             235.675          -1.651e+01              71.993           1.710e+01     
  90.000         290.000           -1.330e+01          -1.416e+01             236.546          -2.074e+01              81.223           1.566e+01     
  90.000         291.000           -1.370e+01          -1.389e+01             236.798          -2.739e+01             114.281           1.509e+01     
  90.000         292.000           -1.351e+01          -1.375e+01             236.560          -2.616e+01             194.536           1.617e+01     
  90.000         293.000           -1.286e+01          -1.374e+01             235.933          -2.020e+01             219.611           1.915e+01     
  90.000         294.000           -1.199e+01          -1.386e+01             234.998          -1.655e+01             227.860           2.451e+01     
  90.000         295.000           -1.110e+01          -1.411e+01             233.823          -1.411e+01             232.292           3.749e+01     
  90.000         296.000           -1.029e+01          -1.451e+01             232.472          -1.235e+01             235.441           3.200e+01     
  90.000         297.000           -9.588e+00          -1.507e+01             231.012          -1.103e+01             238.122           2.505e+01     
  90.000         298.000           -9.000e+00          -1.582e+01             229.527          -1.001e+01             240.671           2.206e+01     
  90.000         299.000           -8.512e+00          -1.680e+01             228.138          -9.209e+00             243.259           2.058e+01     
  90.000         300.000           -8.101e+00          -1.806e+01             227.045          -8.563e+00             245.980           2.011e+01     
  90.000         301.000           -7.745e+00          -1.971e+01             226.631          -8.031e+00             248.878           2.061e+01     
  90.000         302.000           -7.418e+00          -2.192e+01             227.758          -7.575e+00             251.965           2.235e+01     
  90.000         303.000           -7.097e+00          -2.502e+01             232.845          -7.168e+00             255.217           2.636e+01     
  90.000         304.000           -6.761e+00          -2.943e+01             250.862          -6.785e+00             258.584           4.000e+01     
  90.000         305.000           -6.395e+00          -3.174e+01             303.615          -6.408e+00             261.994           2.890e+01     
  90.000         306.000           -5.992e+00          -2.705e+01             341.192          -6.026e+00             265.358           2.130e+01     
  90.000         307.000           -5.551e+00          -2.280e+01             351.495          -5.633e+00             268.587           1.723e+01     
  90.000         308.000           -5.079e+00          -1.971e+01             353.756          -5.231e+00             271.601           1.456e+01     
  90.000         309.000           -4.587e+00          -1.733e+01             353.112          -4.824e+00             274.342           1.269e+01     
  90.000         310.000           -4.087e+00          -1.540e+01             351.124          -4.420e+00             276.773           1.137e+01     
  90.000         311.000           -3.592e+00          -1.379e+01             348.405          -4.029e+00             278.881           1.045e+01     
  90.000         312.000           -3.115e+00          -1.239e+01             345.259          -3.661e+00             280.677           9.850e+00     
  90.000         313.000           -2.663e+00          -1.116e+01             341.855          -3.325e+00             282.188           9.515e+00     
  90.000         314.000           -2.245e+00          -1.006e+01             338.300          -3.031e+00             283.451           9.402e+00     
  90.000         315.000           -1.866e+00          -9.058e+00             334.664          -2.786e+00             284.519           9.481e+00     
  90.000         316.000           -1.532e+00          -8.149e+00             330.999          -2.599e+00             285.441           9.733e+00     
  90.000         317.000           -1.244e+00          -7.315e+00             327.345          -2.477e+00             286.271           1.015e+01     
  90.000         318.000           -1.006e+00          -6.548e+00             323.728          -2.428e+00             287.069           1.074e+01     
  90.000         319.000           -8.187e-01          -5.841e+00             320.170          -2.459e+00             287.895           1.152e+01     
  90.000         320.000           -6.812e-01          -5.190e+00             316.684          -2.580e+00             288.815           1.254e+01     
  90.000         321.000           -5.926e-01          -4.591e+00             313.281          -2.798e+00             289.905           1.389e+01     
  90.000         322.000           -5.501e-01          -4.042e+00             309.965          -3.127e+00             291.256           1.572e+01     
  90.000         323.000           -5.489e-01          -3.541e+00             306.737          -3.577e+00             292.983           1.837e+01     
  90.000         324.000           -5.817e-01          -3.086e+00             303.597          -4.165e+00             295.241           2.280e+01     
  90.000         325.000           -6.384e-01          -2.675e+00             300.543          -4.905e+00             298.254           3.427e+01     
  90.000         326.000           -7.055e-01          -2.307e+00             297.572          -5.814e+00             302.357           2.827e+01     
  90.000         327.000           -7.669e-01          -1.981e+00             294.679          -6.897e+00             308.063           1.997e+01     
  90.000         328.000           -8.042e-01          -1.693e+00             291.859          -8.129e+00             316.163           1.569e+01     
  90.000         329.000           -7.996e-01          -1.444e+00             289.112          -9.401e+00             327.729           1.291e+01     
  90.000         330.000           -7.377e-01          -1.232e+00             286.432          -1.042e+01             343.644           1.103e+01     
  90.000         331.000           -6.095e-01          -1.054e+00             283.819          -1.073e+01               2.975           9.870e+00     
  90.000         332.000           -4.141e-01          -9.086e-01             281.273          -1.010e+01              22.028           9.382e+00     
  90.000         333.000           -1.591e-01          -7.944e-01             278.795          -8.821e+00              37.439           9.509e+00     
  90.000         334.000            1.415e-01          -7.093e-01             276.386          -7.357e+00              48.695           1.017e+01     
  90.000         335.000            4.697e-01          -6.515e-01             274.053          -5.960e+00              56.776           1.128e+01     
  90.000         336.000            8.074e-01          -6.191e-01             271.799          -4.721e+00              62.713           1.277e+01     
  90.000         337.000            1.138e+00          -6.105e-01             269.632          -3.659e+00              67.231           1.463e+01     
  90.000         338.000            1.447e+00          -6.240e-01             267.560          -2.764e+00              70.793           1.690e+01     
  90.000         339.000            1.724e+00          -6.581e-01             265.590          -2.021e+00              73.687           1.975e+01     
  90.000         340.000            1.962e+00          -7.109e-01             263.733          -1.415e+00              76.097           2.354e+01     
  90.000         341.000            2.155e+00          -7.812e-01             261.996          -9.311e-01              78.136           2.945e+01     
  90.000         342.000            2.300e+00          -8.674e-01             260.387          -5.581e-01              79.874           4.000e+01     
  90.000         343.000            2.397e+00          -9.679e-01             258.914          -2.852e-01              81.353           3.346e+01     
  90.000         344.000            2.445e+00          -1.081e+00             257.580          -1.035e-01              82.590           2.724e+01     
  90.000         345.000            2.446e+00          -1.206e+00             256.388          -4.959e-03              83.589           2.411e+01     
  90.000         346.000            2.402e+00          -1.340e+00             255.338           1.797e-02              84.339           2.219e+01     
  90.000         347.000            2.316e+00          -1.482e+00             254.424          -2.739e-02              84.820           2.095e+01     
  90.000         348.000            2.193e+00          -1.629e+00             253.640          -1.334e-01              85.001           2.018e+01     
  90.000         349.000            2.038e+00          -1.780e+00             252.972          -2.919e-01              84.848           1.979e+01     
  90.000         350.000            1.857e+00          -1.934e+00             252.402          -4.929e-01              84.320           1.975e+01     
  90.000         351.000            1.657e+00          -2.087e+00             251.908          -7.253e-01              83.381           2.007e+01     
  90.000         352.000            1.449e+00          -2.238e+00             251.465          -9.756e-01              81.998           2.080e+01     
  90.000         353.000            1.242e+00          -2.385e+00             251.039          -1.228e+00              80.157           2.204e+01     
  90.000         354.000            1.046e+00          -2.529e+00             250.597          -1.464e+00              77.866           2.401e+01     
  90.000         355.000            8.724e-01          -2.667e+00             250.101          -1.666e+00              75.171           2.713e+01     
  90.000         356.000            7.300e-01          -2.799e+00             249.512          -1.817e+00              72.159           3.278e+01     
  90.000         357.000            6.261e-01          -2.926e+00             248.793          -1.903e+00              68.955           4.000e+01     
  90.000         358.000            5.648e-01          -3.047e+00             247.904          -1.918e+00              65.716           3.445e+01     
  90.000         359.000            5.465e-01          -3.162e+00             246.811          -1.862e+00              62.605           2.880e+01     
