Theta [deg.]  Phi   [deg.]  Abs(Grlz)[dBi   ]   Abs(Theta)[dBi   ]  Phase(Theta)[deg.]  Abs(Phi  )[dBi   ]  Phase(Phi  )[deg.]  Ax.Ratio[dB    ]    
------------------------------------------------------------------------------------------------------------------------------------------------------
   0.000          90.000            1.785e+00           1.785e+00              39.304          -5.737e+01             266.766           4.000e+01     
   1.000          90.000            1.747e+00           1.747e+00              39.137          -5.717e+01             266.483           4.000e+01     
   2.000          90.000            1.705e+00           1.705e+00              38.972          -5.698e+01             266.214           4.000e+01     
   3.000          90.000            1.658e+00           1.658e+00              38.811          -5.679e+01             265.957           4.000e+01     
   4.000          90.000            1.607e+00           1.607e+00              38.653          -5.661e+01             265.710           4.000e+01     
   5.000          90.000            1.551e+00           1.551e+00              38.498          -5.644e+01             265.475           4.000e+01     
   6.000          90.000            1.491e+00           1.491e+00              38.347          -5.628e+01             265.250           4.000e+01     
   7.000          90.000            1.426e+00           1.426e+00              38.199          -5.612e+01             265.034           4.000e+01     
   8.000          90.000            1.357e+00           1.357e+00              38.054          -5.596e+01             264.827           4.000e+01     
   9.000          90.000            1.283e+00           1.283e+00              37.913          -5.581e+01             264.629           4.000e+01     
  10.000          90.000            1.204e+00           1.204e+00              37.776          -5.567e+01             264.439           4.000e+01     
  11.000          90.000            1.121e+00           1.121e+00              37.642          -5.553e+01             264.256           4.000e+01     
  12.000          90.000            1.033e+00           1.033e+00              37.512          -5.540e+01             264.082           4.000e+01     
  13.000          90.000            9.405e-01           9.405e-01              37.386          -5.527e+01             263.914           4.000e+01     
  14.000          90.000            8.434e-01           8.434e-01              37.263          -5.514e+01             263.753           4.000e+01     
  15.000          90.000            7.416e-01           7.416e-01              37.145          -5.502e+01             263.599           4.000e+01     
  16.000          90.000            6.352e-01           6.352e-01              37.030          -5.491e+01             263.452           4.000e+01     
  17.000          90.000            5.240e-01           5.240e-01              36.919          -5.480e+01             263.310           4.000e+01     
  18.000          90.000            4.081e-01           4.081e-01              36.812          -5.469e+01             263.175           4.000e+01     
  19.000          90.000            2.874e-01           2.874e-01              36.709          -5.459e+01             263.046           4.000e+01     
  20.000          90.000            1.620e-01           1.619e-01              36.610          -5.449e+01             262.922           4.000e+01     
  21.000          90.000            3.169e-02           3.167e-02              36.515          -5.440e+01             262.803           4.000e+01     
  22.000          90.000           -1.034e-01          -1.034e-01              36.424          -5.431e+01             262.690           4.000e+01     
  23.000          90.000           -2.434e-01          -2.434e-01              36.337          -5.422e+01             262.582           4.000e+01     
  24.000          90.000           -3.883e-01          -3.884e-01              36.254          -5.414e+01             262.479           4.000e+01     
  25.000          90.000           -5.382e-01          -5.382e-01              36.175          -5.406e+01             262.382           4.000e+01     
  26.000          90.000           -6.931e-01          -6.931e-01              36.100          -5.398e+01             262.289           4.000e+01     
  27.000          90.000           -8.530e-01          -8.530e-01              36.028          -5.391e+01             262.200           4.000e+01     
  28.000          90.000           -1.018e+00          -1.018e+00              35.961          -5.384e+01             262.117           4.000e+01     
  29.000          90.000           -1.188e+00          -1.188e+00              35.897          -5.377e+01             262.038           4.000e+01     
  30.000          90.000           -1.363e+00          -1.363e+00              35.837          -5.371e+01             261.963           4.000e+01     
  31.000          90.000           -1.544e+00          -1.544e+00              35.781          -5.365e+01             261.893           4.000e+01     
  32.000          90.000           -1.730e+00          -1.730e+00              35.728          -5.359e+01             261.828           4.000e+01     
  33.000          90.000           -1.921e+00          -1.922e+00              35.679          -5.354e+01             261.766           4.000e+01     
  34.000          90.000           -2.118e+00          -2.118e+00              35.633          -5.348e+01             261.709           4.000e+01     
  35.000          90.000           -2.321e+00          -2.321e+00              35.590          -5.343e+01             261.656           4.000e+01     
  36.000          90.000           -2.529e+00          -2.529e+00              35.550          -5.339e+01             261.607           4.000e+01     
  37.000          90.000           -2.743e+00          -2.743e+00              35.514          -5.334e+01             261.562           4.000e+01     
  38.000          90.000           -2.963e+00          -2.963e+00              35.480          -5.330e+01             261.521           4.000e+01     
  39.000          90.000           -3.189e+00          -3.190e+00              35.449          -5.326e+01             261.484           4.000e+01     
  40.000          90.000           -3.422e+00          -3.422e+00              35.420          -5.322e+01             261.450           4.000e+01     
  41.000          90.000           -3.661e+00          -3.661e+00              35.393          -5.318e+01             261.421           4.000e+01     
  42.000          90.000           -3.906e+00          -3.906e+00              35.369          -5.315e+01             261.396           4.000e+01     
  43.000          90.000           -4.158e+00          -4.158e+00              35.346          -5.312e+01             261.374           4.000e+01     
  44.000          90.000           -4.417e+00          -4.417e+00              35.324          -5.309e+01             261.356           4.000e+01     
  45.000          90.000           -4.684e+00          -4.684e+00              35.303          -5.306e+01             261.341           4.000e+01     
  46.000          90.000           -4.958e+00          -4.958e+00              35.283          -5.303e+01             261.331           4.000e+01     
  47.000          90.000           -5.240e+00          -5.240e+00              35.263          -5.300e+01             261.323           4.000e+01     
  48.000          90.000           -5.530e+00          -5.530e+00              35.243          -5.298e+01             261.320           4.000e+01     
  49.000          90.000           -5.828e+00          -5.828e+00              35.222          -5.296e+01             261.320           4.000e+01     
  50.000          90.000           -6.135e+00          -6.135e+00              35.199          -5.294e+01             261.323           4.000e+01     
  51.000          90.000           -6.452e+00          -6.452e+00              35.175          -5.292e+01             261.330           4.000e+01     
  52.000          90.000           -6.779e+00          -6.779e+00              35.148          -5.290e+01             261.340           4.000e+01     
  53.000          90.000           -7.116e+00          -7.116e+00              35.117          -5.289e+01             261.354           4.000e+01     
  54.000          90.000           -7.464e+00          -7.464e+00              35.081          -5.287e+01             261.371           4.000e+01     
  55.000          90.000           -7.824e+00          -7.824e+00              35.040          -5.286e+01             261.391           4.000e+01     
  56.000          90.000           -8.197e+00          -8.197e+00              34.992          -5.285e+01             261.415           4.000e+01     
  57.000          90.000           -8.583e+00          -8.583e+00              34.935          -5.284e+01             261.441           4.000e+01     
  58.000          90.000           -8.984e+00          -8.984e+00              34.869          -5.283e+01             261.471           4.000e+01     
  59.000          90.000           -9.400e+00          -9.400e+00              34.791          -5.282e+01             261.504           4.000e+01     
  60.000          90.000           -9.833e+00          -9.834e+00              34.699          -5.281e+01             261.541           4.000e+01     
  61.000          90.000           -1.029e+01          -1.029e+01              34.590          -5.280e+01             261.580           4.000e+01     
  62.000          90.000           -1.076e+01          -1.076e+01              34.462          -5.279e+01             261.622           4.000e+01     
  63.000          90.000           -1.125e+01          -1.125e+01              34.310          -5.279e+01             261.668           4.000e+01     
  64.000          90.000           -1.177e+01          -1.177e+01              34.130          -5.278e+01             261.716           4.000e+01     
  65.000          90.000           -1.232e+01          -1.232e+01              33.916          -5.278e+01             261.768           4.000e+01     
  66.000          90.000           -1.290e+01          -1.290e+01              33.661          -5.278e+01             261.822           4.000e+01     
  67.000          90.000           -1.351e+01          -1.351e+01              33.356          -5.278e+01             261.879           4.000e+01     
  68.000          90.000           -1.416e+01          -1.416e+01              32.991          -5.277e+01             261.939           4.000e+01     
  69.000          90.000           -1.486e+01          -1.486e+01              32.549          -5.277e+01             262.002           4.000e+01     
  70.000          90.000           -1.561e+01          -1.561e+01              32.011          -5.277e+01             262.067           3.947e+01     
  71.000          90.000           -1.643e+01          -1.643e+01              31.349          -5.277e+01             262.135           3.856e+01     
  72.000          90.000           -1.731e+01          -1.731e+01              30.525          -5.277e+01             262.206           3.757e+01     
  73.000          90.000           -1.829e+01          -1.829e+01              29.482          -5.277e+01             262.280           3.646e+01     
  74.000          90.000           -1.938e+01          -1.938e+01              28.138          -5.277e+01             262.356           3.522e+01     
  75.000          90.000           -2.060e+01          -2.060e+01              26.360          -5.278e+01             262.434           3.380e+01     
  76.000          90.000           -2.199e+01          -2.200e+01              23.929          -5.278e+01             262.516           3.216e+01     
  77.000          90.000           -2.361e+01          -2.362e+01              20.458          -5.278e+01             262.599           3.023e+01     
  78.000          90.000           -2.553e+01          -2.554e+01              15.209          -5.278e+01             262.685           2.794e+01     
  79.000          90.000           -2.780e+01          -2.782e+01               6.652          -5.279e+01             262.774           2.523e+01     
  80.000          90.000           -3.038e+01          -3.040e+01             351.538          -5.279e+01             262.865           2.239e+01     
  81.000          90.000           -3.246e+01          -3.250e+01             325.029          -5.279e+01             262.958           2.138e+01     
  82.000          90.000           -3.219e+01          -3.222e+01             291.806          -5.280e+01             263.053           2.699e+01     
  83.000          90.000           -2.990e+01          -2.993e+01             267.938          -5.280e+01             263.151           4.000e+01     
  84.000          90.000           -2.741e+01          -2.742e+01             254.593          -5.281e+01             263.251           4.000e+01     
  85.000          90.000           -2.526e+01          -2.527e+01             246.918          -5.281e+01             263.353           3.853e+01     
  86.000          90.000           -2.346e+01          -2.346e+01             242.122          -5.282e+01             263.457           3.814e+01     
  87.000          90.000           -2.193e+01          -2.194e+01             238.901          -5.282e+01             263.563           3.848e+01     
  88.000          90.000           -2.062e+01          -2.063e+01             236.616          -5.283e+01             263.672           3.905e+01     
  89.000          90.000           -1.948e+01          -1.948e+01             234.924          -5.283e+01             263.782           3.969e+01     
  90.000          90.000           -1.846e+01          -1.846e+01             233.630          -5.284e+01             263.894           4.000e+01     
  91.000          90.000           -1.755e+01          -1.755e+01             232.616          -5.285e+01             264.008           4.000e+01     
  92.000          90.000           -1.672e+01          -1.672e+01             231.803          -5.285e+01             264.124           4.000e+01     
  93.000          90.000           -1.596e+01          -1.596e+01             231.141          -5.286e+01             264.242           4.000e+01     
  94.000          90.000           -1.526e+01          -1.526e+01             230.595          -5.287e+01             264.362           4.000e+01     
  95.000          90.000           -1.461e+01          -1.461e+01             230.138          -5.287e+01             264.484           4.000e+01     
  96.000          90.000           -1.401e+01          -1.401e+01             229.752          -5.288e+01             264.607           4.000e+01     
  97.000          90.000           -1.344e+01          -1.344e+01             229.424          -5.289e+01             264.733           4.000e+01     
  98.000          90.000           -1.290e+01          -1.291e+01             229.141          -5.290e+01             264.859           4.000e+01     
  99.000          90.000           -1.240e+01          -1.240e+01             228.897          -5.290e+01             264.988           4.000e+01     
 100.000          90.000           -1.192e+01          -1.192e+01             228.685          -5.291e+01             265.118           4.000e+01     
 101.000          90.000           -1.147e+01          -1.147e+01             228.498          -5.292e+01             265.250           4.000e+01     
 102.000          90.000           -1.103e+01          -1.103e+01             228.334          -5.293e+01             265.384           4.000e+01     
 103.000          90.000           -1.061e+01          -1.061e+01             228.189          -5.294e+01             265.519           4.000e+01     
 104.000          90.000           -1.021e+01          -1.021e+01             228.060          -5.295e+01             265.656           4.000e+01     
 105.000          90.000           -9.831e+00          -9.831e+00             227.944          -5.296e+01             265.794           4.000e+01     
 106.000          90.000           -9.461e+00          -9.461e+00             227.841          -5.298e+01             265.934           4.000e+01     
 107.000          90.000           -9.104e+00          -9.104e+00             227.747          -5.299e+01             266.075           4.000e+01     
 108.000          90.000           -8.759e+00          -8.759e+00             227.663          -5.300e+01             266.218           4.000e+01     
 109.000          90.000           -8.425e+00          -8.425e+00             227.586          -5.301e+01             266.362           4.000e+01     
 110.000          90.000           -8.101e+00          -8.101e+00             227.516          -5.303e+01             266.508           4.000e+01     
 111.000          90.000           -7.787e+00          -7.787e+00             227.452          -5.304e+01             266.655           4.000e+01     
 112.000          90.000           -7.481e+00          -7.481e+00             227.393          -5.306e+01             266.804           4.000e+01     
 113.000          90.000           -7.183e+00          -7.184e+00             227.340          -5.307e+01             266.955           4.000e+01     
 114.000          90.000           -6.894e+00          -6.894e+00             227.290          -5.309e+01             267.107           4.000e+01     
 115.000          90.000           -6.611e+00          -6.611e+00             227.245          -5.311e+01             267.260           4.000e+01     
 116.000          90.000           -6.336e+00          -6.336e+00             227.203          -5.313e+01             267.415           4.000e+01     
 117.000          90.000           -6.066e+00          -6.066e+00             227.164          -5.314e+01             267.571           4.000e+01     
 118.000          90.000           -5.803e+00          -5.803e+00             227.129          -5.317e+01             267.729           4.000e+01     
 119.000          90.000           -5.546e+00          -5.546e+00             227.096          -5.319e+01             267.888           4.000e+01     
 120.000          90.000           -5.294e+00          -5.294e+00             227.067          -5.321e+01             268.049           4.000e+01     
 121.000          90.000           -5.047e+00          -5.047e+00             227.040          -5.323e+01             268.212           4.000e+01     
 122.000          90.000           -4.806e+00          -4.806e+00             227.015          -5.326e+01             268.376           4.000e+01     
 123.000          90.000           -4.569e+00          -4.569e+00             226.993          -5.328e+01             268.541           4.000e+01     
 124.000          90.000           -4.337e+00          -4.337e+00             226.974          -5.331e+01             268.709           4.000e+01     
 125.000          90.000           -4.110e+00          -4.110e+00             226.957          -5.334e+01             268.878           4.000e+01     
 126.000          90.000           -3.886e+00          -3.887e+00             226.942          -5.337e+01             269.048           4.000e+01     
 127.000          90.000           -3.668e+00          -3.668e+00             226.930          -5.340e+01             269.221           4.000e+01     
 128.000          90.000           -3.453e+00          -3.453e+00             226.921          -5.344e+01             269.395           4.000e+01     
 129.000          90.000           -3.242e+00          -3.242e+00             226.913          -5.347e+01             269.571           4.000e+01     
 130.000          90.000           -3.035e+00          -3.035e+00             226.909          -5.351e+01             269.749           4.000e+01     
 131.000          90.000           -2.832e+00          -2.832e+00             226.907          -5.355e+01             269.929           4.000e+01     
 132.000          90.000           -2.632e+00          -2.632e+00             226.908          -5.359e+01             270.111           4.000e+01     
 133.000          90.000           -2.437e+00          -2.437e+00             226.911          -5.363e+01             270.295           4.000e+01     
 134.000          90.000           -2.245e+00          -2.245e+00             226.917          -5.368e+01             270.481           4.000e+01     
 135.000          90.000           -2.056e+00          -2.056e+00             226.926          -5.372e+01             270.669           4.000e+01     
 136.000          90.000           -1.871e+00          -1.871e+00             226.938          -5.377e+01             270.859           4.000e+01     
 137.000          90.000           -1.690e+00          -1.690e+00             226.952          -5.382e+01             271.052           4.000e+01     
 138.000          90.000           -1.512e+00          -1.512e+00             226.970          -5.388e+01             271.248           4.000e+01     
 139.000          90.000           -1.337e+00          -1.337e+00             226.991          -5.393e+01             271.446           4.000e+01     
 140.000          90.000           -1.166e+00          -1.166e+00             227.014          -5.399e+01             271.646           4.000e+01     
 141.000          90.000           -9.982e-01          -9.982e-01             227.041          -5.405e+01             271.850           4.000e+01     
 142.000          90.000           -8.339e-01          -8.339e-01             227.071          -5.411e+01             272.056           4.000e+01     
 143.000          90.000           -6.729e-01          -6.729e-01             227.104          -5.418e+01             272.266           4.000e+01     
 144.000          90.000           -5.153e-01          -5.153e-01             227.141          -5.425e+01             272.478           4.000e+01     
 145.000          90.000           -3.611e-01          -3.611e-01             227.181          -5.432e+01             272.694           4.000e+01     
 146.000          90.000           -2.102e-01          -2.102e-01             227.224          -5.439e+01             272.913           4.000e+01     
 147.000          90.000           -6.275e-02          -6.277e-02             227.270          -5.447e+01             273.137           4.000e+01     
 148.000          90.000            8.134e-02           8.132e-02             227.320          -5.455e+01             273.364           4.000e+01     
 149.000          90.000            2.220e-01           2.220e-01             227.374          -5.464e+01             273.595           4.000e+01     
 150.000          90.000            3.593e-01           3.593e-01             227.431          -5.473e+01             273.830           4.000e+01     
 151.000          90.000            4.932e-01           4.932e-01             227.491          -5.482e+01             274.070           4.000e+01     
 152.000          90.000            6.237e-01           6.237e-01             227.555          -5.491e+01             274.314           4.000e+01     
 153.000          90.000            7.508e-01           7.508e-01             227.623          -5.501e+01             274.564           4.000e+01     
 154.000          90.000            8.744e-01           8.744e-01             227.694          -5.511e+01             274.819           4.000e+01     
 155.000          90.000            9.946e-01           9.945e-01             227.769          -5.522e+01             275.080           4.000e+01     
 156.000          90.000            1.111e+00           1.111e+00             227.847          -5.533e+01             275.346           4.000e+01     
 157.000          90.000            1.224e+00           1.224e+00             227.929          -5.545e+01             275.619           4.000e+01     
 158.000          90.000            1.334e+00           1.334e+00             228.014          -5.557e+01             275.899           4.000e+01     
 159.000          90.000            1.440e+00           1.440e+00             228.104          -5.569e+01             276.185           4.000e+01     
 160.000          90.000            1.543e+00           1.543e+00             228.196          -5.582e+01             276.480           4.000e+01     
 161.000          90.000            1.642e+00           1.642e+00             228.292          -5.595e+01             276.782           4.000e+01     
 162.000          90.000            1.738e+00           1.738e+00             228.392          -5.609e+01             277.093           4.000e+01     
 163.000          90.000            1.829e+00           1.829e+00             228.496          -5.623e+01             277.413           4.000e+01     
 164.000          90.000            1.918e+00           1.918e+00             228.602          -5.638e+01             277.743           4.000e+01     
 165.000          90.000            2.002e+00           2.002e+00             228.713          -5.654e+01             278.084           4.000e+01     
 166.000          90.000            2.084e+00           2.084e+00             228.827          -5.669e+01             278.436           4.000e+01     
 167.000          90.000            2.161e+00           2.161e+00             228.944          -5.686e+01             278.800           4.000e+01     
 168.000          90.000            2.235e+00           2.235e+00             229.065          -5.703e+01             279.177           4.000e+01     
 169.000          90.000            2.305e+00           2.305e+00             229.189          -5.721e+01             279.568           4.000e+01     
 170.000          90.000            2.371e+00           2.371e+00             229.316          -5.739e+01             279.974           4.000e+01     
 171.000          90.000            2.434e+00           2.434e+00             229.447          -5.759e+01             280.396           4.000e+01     
 172.000          90.000            2.493e+00           2.493e+00             229.581          -5.778e+01             280.836           4.000e+01     
 173.000          90.000            2.548e+00           2.548e+00             229.718          -5.799e+01             281.295           4.000e+01     
 174.000          90.000            2.599e+00           2.599e+00             229.859          -5.820e+01             281.775           4.000e+01     
 175.000          90.000            2.647e+00           2.647e+00             230.003          -5.842e+01             282.277           4.000e+01     
 176.000          90.000            2.691e+00           2.691e+00             230.149          -5.865e+01             282.804           4.000e+01     
 177.000          90.000            2.731e+00           2.731e+00             230.299          -5.889e+01             283.358           4.000e+01     
 178.000          90.000            2.767e+00           2.767e+00             230.452          -5.913e+01             283.940           4.000e+01     
 179.000          90.000            2.799e+00           2.799e+00             230.607          -5.939e+01             284.555           4.000e+01     
 180.000          90.000            2.828e+00           2.828e+00             230.766          -5.965e+01             285.205           4.000e+01     
 179.000         270.000            2.853e+00           2.853e+00              50.927          -5.993e+01             105.893           4.000e+01     
 178.000         270.000            2.874e+00           2.874e+00              51.091          -6.021e+01             106.624           4.000e+01     
 177.000         270.000            2.891e+00           2.891e+00              51.258          -6.051e+01             107.401           4.000e+01     
 176.000         270.000            2.904e+00           2.904e+00              51.428          -6.081e+01             108.231           4.000e+01     
 175.000         270.000            2.913e+00           2.913e+00              51.600          -6.113e+01             109.118           4.000e+01     
 174.000         270.000            2.919e+00           2.919e+00              51.774          -6.146e+01             110.070           4.000e+01     
 173.000         270.000            2.920e+00           2.920e+00              51.951          -6.180e+01             111.093           4.000e+01     
 172.000         270.000            2.918e+00           2.918e+00              52.130          -6.216e+01             112.197           4.000e+01     
 171.000         270.000            2.911e+00           2.911e+00              52.312          -6.253e+01             113.391           4.000e+01     
 170.000         270.000            2.901e+00           2.901e+00              52.496          -6.291e+01             114.687           4.000e+01     
 169.000         270.000            2.887e+00           2.887e+00              52.682          -6.331e+01             116.098           4.000e+01     
 168.000         270.000            2.869e+00           2.869e+00              52.870          -6.372e+01             117.638           4.000e+01     
 167.000         270.000            2.847e+00           2.847e+00              53.060          -6.414e+01             119.326           4.000e+01     
 166.000         270.000            2.821e+00           2.821e+00              53.252          -6.459e+01             121.181           4.000e+01     
 165.000         270.000            2.791e+00           2.791e+00              53.446          -6.504e+01             123.226           4.000e+01     
 164.000         270.000            2.757e+00           2.757e+00              53.642          -6.551e+01             125.487           4.000e+01     
 163.000         270.000            2.719e+00           2.719e+00              53.839          -6.598e+01             127.994           4.000e+01     
 162.000         270.000            2.677e+00           2.677e+00              54.038          -6.647e+01             130.778           4.000e+01     
 161.000         270.000            2.631e+00           2.631e+00              54.239          -6.696e+01             133.874           4.000e+01     
 160.000         270.000            2.582e+00           2.582e+00              54.441          -6.745e+01             137.319           4.000e+01     
 159.000         270.000            2.528e+00           2.528e+00              54.645          -6.793e+01             141.147           4.000e+01     
 158.000         270.000            2.470e+00           2.470e+00              54.850          -6.840e+01             145.385           4.000e+01     
 157.000         270.000            2.408e+00           2.408e+00              55.056          -6.883e+01             150.053           4.000e+01     
 156.000         270.000            2.342e+00           2.342e+00              55.264          -6.922e+01             155.148           4.000e+01     
 155.000         270.000            2.272e+00           2.272e+00              55.473          -6.955e+01             160.640           4.000e+01     
 154.000         270.000            2.197e+00           2.197e+00              55.682          -6.981e+01             166.469           4.000e+01     
 153.000         270.000            2.119e+00           2.119e+00              55.893          -6.997e+01             172.537           4.000e+01     
 152.000         270.000            2.037e+00           2.037e+00              56.105          -7.004e+01             178.717           4.000e+01     
 151.000         270.000            1.950e+00           1.950e+00              56.318          -7.001e+01             184.869           4.000e+01     
 150.000         270.000            1.859e+00           1.859e+00              56.531          -6.989e+01             190.855           4.000e+01     
 149.000         270.000            1.764e+00           1.764e+00              56.745          -6.968e+01             196.559           4.000e+01     
 148.000         270.000            1.665e+00           1.665e+00              56.960          -6.941e+01             201.894           4.000e+01     
 147.000         270.000            1.561e+00           1.561e+00              57.176          -6.908e+01             206.813           4.000e+01     
 146.000         270.000            1.453e+00           1.453e+00              57.392          -6.871e+01             211.297           4.000e+01     
 145.000         270.000            1.341e+00           1.341e+00              57.609          -6.831e+01             215.353           4.000e+01     
 144.000         270.000            1.225e+00           1.225e+00              57.826          -6.791e+01             219.003           4.000e+01     
 143.000         270.000            1.104e+00           1.104e+00              58.044          -6.749e+01             222.278           4.000e+01     
 142.000         270.000            9.779e-01           9.779e-01              58.262          -6.708e+01             225.214           4.000e+01     
 141.000         270.000            8.478e-01           8.478e-01              58.481          -6.667e+01             227.846           4.000e+01     
 140.000         270.000            7.130e-01           7.130e-01              58.700          -6.628e+01             230.208           4.000e+01     
 139.000         270.000            5.735e-01           5.735e-01              58.920          -6.589e+01             232.332           4.000e+01     
 138.000         270.000            4.292e-01           4.292e-01              59.140          -6.552e+01             234.245           4.000e+01     
 137.000         270.000            2.801e-01           2.801e-01              59.361          -6.516e+01             235.973           4.000e+01     
 136.000         270.000            1.260e-01           1.260e-01              59.581          -6.481e+01             237.537           4.000e+01     
 135.000         270.000           -3.315e-02          -3.315e-02              59.803          -6.449e+01             238.956           4.000e+01     
 134.000         270.000           -1.975e-01          -1.975e-01              60.025          -6.417e+01             240.247           4.000e+01     
 133.000         270.000           -3.671e-01          -3.671e-01              60.248          -6.387e+01             241.424           4.000e+01     
 132.000         270.000           -5.421e-01          -5.421e-01              60.471          -6.358e+01             242.499           4.000e+01     
 131.000         270.000           -7.227e-01          -7.227e-01              60.695          -6.331e+01             243.484           4.000e+01     
 130.000         270.000           -9.090e-01          -9.090e-01              60.921          -6.304e+01             244.387           4.000e+01     
 129.000         270.000           -1.101e+00          -1.101e+00              61.147          -6.280e+01             245.217           4.000e+01     
 128.000         270.000           -1.300e+00          -1.300e+00              61.375          -6.256e+01             245.981           4.000e+01     
 127.000         270.000           -1.504e+00          -1.504e+00              61.604          -6.233e+01             246.686           4.000e+01     
 126.000         270.000           -1.715e+00          -1.715e+00              61.835          -6.212e+01             247.336           4.000e+01     
 125.000         270.000           -1.933e+00          -1.933e+00              62.068          -6.191e+01             247.936           4.000e+01     
 124.000         270.000           -2.158e+00          -2.158e+00              62.303          -6.172e+01             248.492           4.000e+01     
 123.000         270.000           -2.390e+00          -2.390e+00              62.541          -6.153e+01             249.006           4.000e+01     
 122.000         270.000           -2.630e+00          -2.630e+00              62.782          -6.136e+01             249.482           4.000e+01     
 121.000         270.000           -2.877e+00          -2.877e+00              63.028          -6.119e+01             249.923           4.000e+01     
 120.000         270.000           -3.133e+00          -3.133e+00              63.277          -6.103e+01             250.331           4.000e+01     
 119.000         270.000           -3.398e+00          -3.398e+00              63.531          -6.088e+01             250.710           4.000e+01     
 118.000         270.000           -3.673e+00          -3.673e+00              63.792          -6.074e+01             251.060           4.000e+01     
 117.000         270.000           -3.957e+00          -3.957e+00              64.059          -6.061e+01             251.385           4.000e+01     
 116.000         270.000           -4.251e+00          -4.251e+00              64.333          -6.048e+01             251.685           4.000e+01     
 115.000         270.000           -4.556e+00          -4.556e+00              64.617          -6.037e+01             251.963           4.000e+01     
 114.000         270.000           -4.873e+00          -4.873e+00              64.911          -6.025e+01             252.219           4.000e+01     
 113.000         270.000           -5.203e+00          -5.203e+00              65.218          -6.015e+01             252.455           4.000e+01     
 112.000         270.000           -5.546e+00          -5.546e+00              65.538          -6.005e+01             252.672           4.000e+01     
 111.000         270.000           -5.904e+00          -5.904e+00              65.875          -5.996e+01             252.872           4.000e+01     
 110.000         270.000           -6.277e+00          -6.277e+00              66.231          -5.988e+01             253.054           4.000e+01     
 109.000         270.000           -6.667e+00          -6.667e+00              66.609          -5.980e+01             253.220           4.000e+01     
 108.000         270.000           -7.075e+00          -7.075e+00              67.013          -5.973e+01             253.371           4.000e+01     
 107.000         270.000           -7.504e+00          -7.504e+00              67.448          -5.966e+01             253.507           4.000e+01     
 106.000         270.000           -7.954e+00          -7.954e+00              67.919          -5.960e+01             253.629           4.000e+01     
 105.000         270.000           -8.429e+00          -8.429e+00              68.434          -5.954e+01             253.738           4.000e+01     
 104.000         270.000           -8.930e+00          -8.930e+00              69.000          -5.950e+01             253.833           4.000e+01     
 103.000         270.000           -9.462e+00          -9.462e+00              69.629          -5.945e+01             253.916           4.000e+01     
 102.000         270.000           -1.003e+01          -1.003e+01              70.334          -5.941e+01             253.987           4.000e+01     
 101.000         270.000           -1.063e+01          -1.063e+01              71.133          -5.938e+01             254.047           4.000e+01     
 100.000         270.000           -1.127e+01          -1.127e+01              72.047          -5.936e+01             254.095           4.000e+01     
  99.000         270.000           -1.197e+01          -1.197e+01              73.107          -5.933e+01             254.131           4.000e+01     
  98.000         270.000           -1.272e+01          -1.272e+01              74.352          -5.932e+01             254.157           4.000e+01     
  97.000         270.000           -1.353e+01          -1.353e+01              75.838          -5.931e+01             254.173           4.000e+01     
  96.000         270.000           -1.443e+01          -1.443e+01              77.644          -5.930e+01             254.178           4.000e+01     
  95.000         270.000           -1.541e+01          -1.541e+01              79.881          -5.930e+01             254.172           4.000e+01     
  94.000         270.000           -1.649e+01          -1.649e+01              82.719          -5.931e+01             254.157           4.000e+01     
  93.000         270.000           -1.770e+01          -1.770e+01              86.417          -5.932e+01             254.131           4.000e+01     
  92.000         270.000           -1.905e+01          -1.905e+01              91.385          -5.933e+01             254.096           4.000e+01     
  91.000         270.000           -2.053e+01          -2.053e+01              98.276          -5.936e+01             254.050           4.000e+01     
  90.000         270.000           -2.209e+01          -2.209e+01             108.091          -5.938e+01             253.995           4.000e+01     
  89.000         270.000           -2.354e+01          -2.354e+01             122.058          -5.941e+01             253.930           3.843e+01     
  88.000         270.000           -2.446e+01          -2.446e+01             140.544          -5.945e+01             253.854           3.573e+01     
  87.000         270.000           -2.437e+01          -2.437e+01             160.940          -5.949e+01             253.769           3.514e+01     
  86.000         270.000           -2.333e+01          -2.333e+01             178.732          -5.954e+01             253.673           3.652e+01     
  85.000         270.000           -2.184e+01          -2.184e+01             191.899          -5.960e+01             253.567           3.886e+01     
  84.000         270.000           -2.029e+01          -2.029e+01             201.098          -5.966e+01             253.450           4.000e+01     
  83.000         270.000           -1.884e+01          -1.884e+01             207.558          -5.972e+01             253.322           4.000e+01     
  82.000         270.000           -1.752e+01          -1.752e+01             212.214          -5.979e+01             253.183           4.000e+01     
  81.000         270.000           -1.634e+01          -1.634e+01             215.674          -5.987e+01             253.033           4.000e+01     
  80.000         270.000           -1.528e+01          -1.528e+01             218.314          -5.996e+01             252.871           4.000e+01     
  79.000         270.000           -1.432e+01          -1.432e+01             220.376          -6.005e+01             252.697           4.000e+01     
  78.000         270.000           -1.345e+01          -1.345e+01             222.018          -6.015e+01             252.509           4.000e+01     
  77.000         270.000           -1.265e+01          -1.265e+01             223.344          -6.025e+01             252.309           4.000e+01     
  76.000         270.000           -1.192e+01          -1.192e+01             224.430          -6.036e+01             252.094           4.000e+01     
  75.000         270.000           -1.124e+01          -1.124e+01             225.326          -6.048e+01             251.865           4.000e+01     
  74.000         270.000           -1.061e+01          -1.061e+01             226.072          -6.061e+01             251.620           4.000e+01     
  73.000         270.000           -1.002e+01          -1.002e+01             226.696          -6.074e+01             251.359           4.000e+01     
  72.000         270.000           -9.469e+00          -9.469e+00             227.219          -6.088e+01             251.080           4.000e+01     
  71.000         270.000           -8.949e+00          -8.950e+00             227.658          -6.103e+01             250.783           4.000e+01     
  70.000         270.000           -8.460e+00          -8.460e+00             228.026          -6.119e+01             250.465           4.000e+01     
  69.000         270.000           -7.996e+00          -7.996e+00             228.334          -6.136e+01             250.126           4.000e+01     
  68.000         270.000           -7.557e+00          -7.557e+00             228.590          -6.153e+01             249.764           4.000e+01     
  67.000         270.000           -7.139e+00          -7.139e+00             228.801          -6.172e+01             249.377           4.000e+01     
  66.000         270.000           -6.741e+00          -6.741e+00             228.972          -6.192e+01             248.963           4.000e+01     
  65.000         270.000           -6.361e+00          -6.361e+00             229.109          -6.213e+01             248.519           4.000e+01     
  64.000         270.000           -5.998e+00          -5.998e+00             229.214          -6.235e+01             248.043           4.000e+01     
  63.000         270.000           -5.651e+00          -5.651e+00             229.293          -6.258e+01             247.531           4.000e+01     
  62.000         270.000           -5.318e+00          -5.318e+00             229.346          -6.283e+01             246.979           4.000e+01     
  61.000         270.000           -4.998e+00          -4.998e+00             229.377          -6.309e+01             246.383           4.000e+01     
  60.000         270.000           -4.691e+00          -4.691e+00             229.388          -6.336e+01             245.739           4.000e+01     
  59.000         270.000           -4.396e+00          -4.396e+00             229.380          -6.365e+01             245.039           4.000e+01     
  58.000         270.000           -4.112e+00          -4.112e+00             229.356          -6.395e+01             244.278           4.000e+01     
  57.000         270.000           -3.838e+00          -3.838e+00             229.316          -6.428e+01             243.447           4.000e+01     
  56.000         270.000           -3.574e+00          -3.574e+00             229.262          -6.462e+01             242.536           4.000e+01     
  55.000         270.000           -3.320e+00          -3.320e+00             229.195          -6.498e+01             241.534           4.000e+01     
  54.000         270.000           -3.074e+00          -3.074e+00             229.117          -6.536e+01             240.427           4.000e+01     
  53.000         270.000           -2.837e+00          -2.837e+00             229.027          -6.577e+01             239.198           4.000e+01     
  52.000         270.000           -2.608e+00          -2.608e+00             228.927          -6.620e+01             237.828           4.000e+01     
  51.000         270.000           -2.386e+00          -2.386e+00             228.818          -6.666e+01             236.291           4.000e+01     
  50.000         270.000           -2.172e+00          -2.172e+00             228.699          -6.714e+01             234.557           4.000e+01     
  49.000         270.000           -1.965e+00          -1.965e+00             228.573          -6.766e+01             232.588           4.000e+01     
  48.000         270.000           -1.766e+00          -1.766e+00             228.439          -6.820e+01             230.338           4.000e+01     
  47.000         270.000           -1.572e+00          -1.572e+00             228.298          -6.878e+01             227.748           4.000e+01     
  46.000         270.000           -1.386e+00          -1.386e+00             228.151          -6.938e+01             224.748           4.000e+01     
  45.000         270.000           -1.205e+00          -1.205e+00             227.997          -7.001e+01             221.249           4.000e+01     
  44.000         270.000           -1.031e+00          -1.031e+00             227.838          -7.067e+01             217.147           4.000e+01     
  43.000         270.000           -8.622e-01          -8.622e-01             227.673          -7.133e+01             212.322           4.000e+01     
  42.000         270.000           -6.994e-01          -6.994e-01             227.504          -7.198e+01             206.648           4.000e+01     
  41.000         270.000           -5.423e-01          -5.423e-01             227.330          -7.259e+01             200.017           4.000e+01     
  40.000         270.000           -3.907e-01          -3.907e-01             227.152          -7.311e+01             192.384           4.000e+01     
  39.000         270.000           -2.445e-01          -2.445e-01             226.971          -7.349e+01             183.827           4.000e+01     
  38.000         270.000           -1.035e-01          -1.035e-01             226.786          -7.368e+01             174.597           4.000e+01     
  37.000         270.000            3.221e-02           3.221e-02             226.597          -7.364e+01             165.114           4.000e+01     
  36.000         270.000            1.628e-01           1.628e-01             226.406          -7.337e+01             155.873           4.000e+01     
  35.000         270.000            2.884e-01           2.884e-01             226.212          -7.291e+01             147.297           4.000e+01     
  34.000         270.000            4.091e-01           4.091e-01             226.016          -7.230e+01             139.642           4.000e+01     
  33.000         270.000            5.248e-01           5.248e-01             225.817          -7.161e+01             132.987           4.000e+01     
  32.000         270.000            6.357e-01           6.357e-01             225.617          -7.088e+01             127.289           4.000e+01     
  31.000         270.000            7.418e-01           7.418e-01             225.415          -7.013e+01             122.440           4.000e+01     
  30.000         270.000            8.432e-01           8.432e-01             225.211          -6.939e+01             118.317           4.000e+01     
  29.000         270.000            9.398e-01           9.398e-01             225.007          -6.867e+01             114.798           4.000e+01     
  28.000         270.000            1.032e+00           1.032e+00             224.801          -6.798e+01             111.778           4.000e+01     
  27.000         270.000            1.119e+00           1.119e+00             224.594          -6.732e+01             109.169           4.000e+01     
  26.000         270.000            1.202e+00           1.202e+00             224.387          -6.669e+01             106.899           4.000e+01     
  25.000         270.000            1.280e+00           1.280e+00             224.180          -6.609e+01             104.910           4.000e+01     
  24.000         270.000            1.354e+00           1.354e+00             223.972          -6.552e+01             103.156           4.000e+01     
  23.000         270.000            1.423e+00           1.423e+00             223.764          -6.498e+01             101.598           4.000e+01     
  22.000         270.000            1.488e+00           1.488e+00             223.556          -6.447e+01             100.206           4.000e+01     
  21.000         270.000            1.548e+00           1.548e+00             223.349          -6.398e+01              98.956           4.000e+01     
  20.000         270.000            1.604e+00           1.604e+00             223.142          -6.351e+01              97.826           4.000e+01     
  19.000         270.000            1.655e+00           1.655e+00             222.935          -6.306e+01              96.800           4.000e+01     
  18.000         270.000            1.702e+00           1.702e+00             222.729          -6.264e+01              95.864           4.000e+01     
  17.000         270.000            1.744e+00           1.744e+00             222.524          -6.223e+01              95.006           4.000e+01     
  16.000         270.000            1.782e+00           1.782e+00             222.321          -6.184e+01              94.217           4.000e+01     
  15.000         270.000            1.815e+00           1.815e+00             222.118          -6.147e+01              93.489           4.000e+01     
  14.000         270.000            1.844e+00           1.844e+00             221.917          -6.112e+01              92.815           4.000e+01     
  13.000         270.000            1.869e+00           1.869e+00             221.717          -6.078e+01              92.188           4.000e+01     
  12.000         270.000            1.889e+00           1.889e+00             221.518          -6.045e+01              91.604           4.000e+01     
  11.000         270.000            1.905e+00           1.905e+00             221.322          -6.013e+01              91.058           4.000e+01     
  10.000         270.000            1.916e+00           1.916e+00             221.127          -5.983e+01              90.546           4.000e+01     
   9.000         270.000            1.923e+00           1.923e+00             220.934          -5.954e+01              90.066           4.000e+01     
   8.000         270.000            1.926e+00           1.926e+00             220.743          -5.926e+01              89.614           4.000e+01     
   7.000         270.000            1.924e+00           1.924e+00             220.555          -5.899e+01              89.187           4.000e+01     
   6.000         270.000            1.917e+00           1.917e+00             220.368          -5.873e+01              88.784           4.000e+01     
   5.000         270.000            1.906e+00           1.906e+00             220.184          -5.849e+01              88.403           4.000e+01     
   4.000         270.000            1.891e+00           1.891e+00             220.003          -5.825e+01              88.042           4.000e+01     
   3.000         270.000            1.871e+00           1.871e+00             219.824          -5.801e+01              87.699           4.000e+01     
   2.000         270.000            1.847e+00           1.847e+00             219.648          -5.779e+01              87.372           4.000e+01     
   1.000         270.000            1.818e+00           1.818e+00             219.475          -5.758e+01              87.062           4.000e+01     
